! Start: 27°
! Ende: 30°
! Schritt: 0,02°
! Messzeit: 2s
#2Theta  I (pcs)
27.0000   25
27.0200   28
27.0400   27
27.0600   34
27.0800   43
27.1000   32
27.1200   32
27.1400   31
27.1600   37
27.1800   27
27.2000   28
27.2200   28
27.2400   27
27.2600   33
27.2800   22
27.3000   30
27.3200   30
27.3400   32
27.3600   34
27.3800   28
27.4000   29
27.4200   31
27.4400   35
27.4600   22
27.4800   29
27.5000   32
27.5200   30
27.5400   21
27.5600   28
27.5800   30
27.6000   33
27.6200   33
27.6400   43
27.6600   24
27.6800   32
27.7000   23
27.7200   30
27.7400   24
27.7600   30
27.7800   36
27.8000   27
27.8200   32
27.8400   41
27.8600   29
27.8800   41
27.9000   41
27.9200   50
27.9400   48
27.9600   41
27.9800   41
28.0000   47
28.0200   55
28.0400   56
28.0600   66
28.0800   61
28.1000   81
28.1200   86
28.1400   58
28.1600   71
28.1800   99
28.2000   89
28.2200   103
28.2400   104
28.2600   112
28.2800   128
28.3000   141
28.3200   155
28.3400   197
28.3600   242
28.3800   299
28.4000   371
28.4200   467
28.4400   601
28.4600   865
28.4800   1062
28.5000   1499
28.5200   1834
28.5400   2165
28.5600   2215
28.5800   2555
28.6000   2833
28.6200   2891
28.6400   2749
28.6600   2389
28.6800   2095
28.7000   1560
28.7200   1211
28.7400   859
28.7600   582
28.7800   328
28.8000   239
28.8200   180
28.8400   155
28.8600   152
28.8800   108
28.9000   104
28.9200   110
28.9400   84
28.9600   68
28.9800   69
29.0000   71
29.0200   52
29.0400   54
29.0600   46
29.0800   36
29.1000   31
29.1200   46
29.1400   35
29.1600   35
29.1800   45
29.2000   37
29.2200   39
29.2400   33
29.2600   22
29.2800   30
29.3000   21
29.3200   25
29.3400   22
29.3600   25
29.3800   25
29.4000   32
29.4200   27
29.4400   25
29.4600   27
29.4800   17
29.5000   20
29.5200   18
29.5400   22
29.5600   25
29.5800   17
29.6000   25
29.6200   18
29.6400   27
29.6600   22
29.6800   23
29.7000   15
29.7200   21
29.7400   19
29.7600   23
29.7800   22
29.8000   19
29.8200   22
29.8400   22
29.8600   19
29.8800   20
29.9000   25
29.9200   24
29.9400   15
29.9600   17
29.9800   20
30.0000   20
