I [a.u.]
13.350
13.315
13.905
14.975
16.000
16.200
16.925
17.470
18.280
19.180
19.925
20.095
20.960
22.630
23.795
24.660
25.250
26.820
27.760
28.905
30.000
31.455
32.235
33.095
34.460
35.095
36.000
37.640
39.000
39.840
41.070
42.170
43.155
44.545
45.620
47.025
48.000
49.000
49.230
50.845
51.550
52.000
52.150
54.000
54.625
54.925
55.740
56.910
57.675
57.845
58.265
58.750
59.195
59.925
60.000
60.000
60.250
60.600
60.650
60.905
61.000
61.110
61.085
61.265
61.625
61.655
61.655
61.695
61.830
62.000
62.095
62.190
62.570
63.010
63.105
63.250
63.360
63.710
63.980
63.985
64.615
64.905
64.900
64.925
65.655
65.860
66.325
67.095
67.000
67.190
68.000
68.000
68.000
69.810
70.095
70.265
71.000
71.640
72.720
73.370
74.190
75.250
75.515
77.000
77.850
78.470
79.645
80.385
81.000
81.740
82.570
83.195
84.000
84.150
85.500
84.690
85.560
86.170
86.420
87.325
87.695
88.640
89.075
90.820
92.180
92.530
92.725
93.275
93.365
93.645
94.035
94.190
94.505
94.905
94.900
94.270
94.070
94.075
93.810
93.385
93.440
92.495
92.280
92.000
91.375
90.905
90.180
88.825
87.630
87.000
86.460
85.810
84.550
84.000
83.620
83.000
82.425
81.095
80.900
79.975
79.330
78.275
77.810
76.845
76.000
75.675
75.000
74.180
73.620
72.375
72.155
71.640
71.000
70.810
70.095
70.000
68.190
68.435
68.000
67.830
67.255
67.000
66.900
66.545
67.000
66.725
66.605
66.350
66.575
66.445
66.845
66.460
66.230
66.420
66.710
66.545
66.905
67.000
67.000
67.095
67.560
67.615
67.725
68.000
67.905
68.000
68.390
69.035
68.940
70.000
70.350
70.720
70.345
70.720
71.410
71.175
71.370
71.815
71.665
71.990
72.655
73.275
73.350
73.095
73.170
73.335
73.155
73.930
74.025
73.925
73.255
73.525
73.275
73.080
72.955
73.175
72.560
72.100
71.730
71.195
71.000
71.000
70.470
70.095
69.640
68.150
68.000
68.000
67.555
66.625
66.370
65.550
65.000
64.725
64.180
63.230
62.645
61.750
61.155
60.270
59.845
59.195
58.720
58.180
57.165
56.245
55.905
55.000
55.000
54.280
53.800
53.280
52.095
52.000
51.375
51.000
50.725
49.745
49.880
49.000
48.750
48.350
47.635
47.530
47.540
46.600
46.255
45.845
45.975
45.200
45.250
44.895
44.745
44.710
44.305
44.400
43.925
43.805
44.000
43.615
43.455
43.470
43.275
43.280
43.095
43.205
43.280
43.300
43.220
43.280
43.070
43.170
43.360
43.550
43.230
43.375
43.360
43.625
43.635
43.810
43.830
43.385
44.000
44.615
43.820
43.695
43.905
44.280
45.215
44.725
44.515
44.805
44.900
45.060
45.125
44.870
45.095
45.385
45.575
45.750
45.725
45.555
45.275
45.725
45.670
45.575
45.460
45.375
45.190
45.300
45.305
45.015
44.905
45.025
44.750
44.515
44.375
44.275
44.205
43.905
43.700
43.395
42.935
42.360
41.845
41.700
42.015
41.145
40.915
41.110
40.490
40.205
39.850
39.445
39.250
39.000
38.730
38.580
38.020
37.545
36.190
36.200
36.100
35.720
35.695
35.725
35.000
34.605
34.180
33.805
33.455
33.000
33.000
32.360
32.365
31.950
31.495
31.005
30.695
30.075
30.000
29.710
29.860
29.000
28.830
28.830
28.460
28.455
27.905
27.530
27.670
27.280
26.795
27.000
27.000
26.770
26.700
26.580
26.300
26.000
25.665
25.710
25.265
25.375
25.250
24.890
24.865
24.540
25.025
25.000
24.580
24.325
24.490
24.335
24.155
24.300
24.205
23.570
23.905
23.770
23.905
23.905
23.830
23.465
24.000
23.530
23.670
23.600
23.190
23.505
23.720
23.300
23.735
23.455
23.095
23.170
23.445
23.505
23.300
23.205
23.505
23.355
23.470
23.455
23.565
23.550
23.750
23.745
23.915
24.005
23.980
24.100
24.205
24.195
24.180
24.195
24.190
24.385
24.445
24.905
24.625
24.340
24.190
24.205
24.270
24.195
24.205
24.300
24.000
23.905
23.705
23.195
23.230
23.445
23.355
23.095
23.385
23.450
23.000
23.000
23.250
23.095
23.095
23.000
22.905
23.000
22.830
22.530
22.275
21.905
21.580
21.700
20.625
20.100
20.290
20.170
20.000
20.000
20.000
19.925
19.745
20.000
19.605
19.520
19.095
18.925
19.000
18.605
18.420
18.060
17.770
17.940
17.505
17.270
17.000
16.820
16.000
15.800
16.350
15.730
15.195
15.430
15.360
15.370
15.845
15.450
14.855
15.205
14.905
15.080
14.360
14.000
13.890
13.905
13.905
13.470
13.420
13.105
13.560
13.395
12.760
13.035
12.805
12.805
12.650
12.370
12.290
12.180
12.170
12.170
12.095
11.905
11.630
11.725
11.605
11.600
11.095
11.170
11.170
11.325
11.250
10.905
11.095
11.170
10.830
10.925
10.730
10.750
11.000
10.545
10.355
10.085
10.670
10.190
10.005
10.075
10.190
10.095
10.190
9.830
9.630
9.915
9.900
9.935
9.520
9.505
9.770
9.485
9.605
9.925
9.540
9.410
9.430
9.000
9.190
9.560
9.000
9.180
9.080
9.000
9.455
8.905
8.905
8.905
8.830
9.000
9.000
8.845
8.820
8.750
8.425
8.525
8.905
8.495
8.375
8.485
8.095
8.175
8.450
8.385
7.940
8.055
7.795
8.095
8.095
7.750
7.795
7.570
7.620
7.720
7.885
7.755
7.915
8.000
8.000
7.625
7.555
7.195
7.615
7.480
7.530
7.155
7.095
7.250
7.250
7.000
7.250
6.905
7.205
7.095
7.155
7.000
7.100
7.205
7.000
7.000
7.000
7.000
7.000
7.000
6.750
6.470
6.925
6.805
6.750
6.365
6.195
6.535
6.925
6.745
6.000
6.100
6.155
6.635
6.170
5.450
5.965
6.250
6.410
6.025
5.355
5.435
5.505
5.690
5.185
5.350
5.240
4.300
4.540
5.040
4.500
4.455
4.855
4.600
4.600
4.075
4.300
4.190
4.250
4.155
4.095
4.095
4.155
4.000
4.000
4.000
4.000
4.000
4.190
4.190
4.000
4.000
4.000
4.000
4.000
3.905
3.905
3.615
3.905
3.715
4.000
3.700
3.545
3.465
3.345
3.505
3.640
3.425
3.570
3.170
3.620
3.190
3.180
3.630
3.250
3.550
3.170
3.095
3.155
3.495
3.335
3.545
3.300
3.000
3.350
3.095
3.375
2.845
2.905
3.155
3.095
2.845
2.900
2.845
3.000
3.000
3.000
3.000
2.905
3.000
2.905
3.000
3.095
3.000
2.820
2.725
2.750
3.000
3.000
3.000
2.905
3.000
2.810
2.820
2.650
2.655
2.905
2.925
2.830
2.540
2.845
2.980
2.735
2.745
2.745
2.555
2.580
2.810
2.770
2.820
2.710
2.750
2.325
2.905
2.925
2.545
2.805
2.805
2.285
2.495
2.695
2.900
2.810
2.810
2.535
2.630
2.825
2.445
2.810
2.805
2.830
2.445
2.205
2.805
3.000
2.735
2.495
2.530
2.905
2.600
2.810
2.530
2.470
2.195
2.610
2.900
2.570
2.555
2.475
2.540
2.420
2.905
2.305
2.375
2.470
2.300
2.355
2.735
2.640
2.210
2.470
2.650
2.630
2.530
2.375
2.275
2.420
2.265
2.325
2.530
2.280
2.225
2.345
2.270
2.255
2.520
2.290
2.170
2.250
2.485
2.430
2.650
2.170
2.425
2.170
2.360
2.405
1.990
2.420
2.700
2.120
2.040
2.445
1.895
2.425
2.385
2.480
2.075
2.170
2.075
1.775
2.280
2.730
2.115
1.950
1.845
1.850
2.000
2.360
2.205
1.795
2.040
1.815
2.185
2.020
2.000
2.095
1.750
1.895
1.885
1.900
1.805
1.640
1.725
1.810
1.990
1.805
1.445
1.830
1.750
1.450
1.905
1.995
1.590
1.325
1.360
1.565
1.430
1.565
1.700
1.350
1.250
1.600
1.530
1.275
1.375
1.780
1.325
1.335
1.250
1.000
1.180
1.575
1.155
1.000
1.095
1.095
1.580
1.385
1.095
1.170
1.300
1.400
1.385
1.000
1.305
1.280
1.170
1.000
1.180
1.180
1.360
1.000
1.255
1.095
1.180
1.000
1.000
1.000
1.000
1.000
1.000
1.100
1.180
1.000
1.300
1.000
1.205
1.000
1.000
1.000
1.095
1.155
1.095
1.000
1.000
1.155
1.095
1.100
0.905
1.000
1.000
1.000
1.000
1.000
1.000
1.000
1.000
1.000
1.000
1.000
1.000
1.000
1.000
1.095
1.000
1.000
1.000
1.000
1.000
1.095
1.000
1.000
1.000
