I [a.u.]
17.405
17.580
19.095
19.900
20.045
20.630
22.140
23.665
25.170
25.240
26.760
28.405
29.210
30.000
32.645
33.720
34.475
36.000
37.000
39.000
40.640
42.020
43.455
45.450
47.170
48.980
50.290
51.210
52.815
55.000
56.080
57.785
59.500
61.320
62.495
64.760
65.690
67.785
68.200
70.000
71.020
73.000
74.095
75.260
76.115
77.670
78.360
79.760
81.000
81.260
82.905
83.240
83.760
84.000
85.810
85.340
86.620
86.380
86.570
87.240
87.810
87.790
88.810
88.000
89.330
89.835
90.405
89.790
90.360
90.595
91.745
92.000
92.290
92.500
93.810
93.885
94.190
95.215
95.535
96.575
96.800
97.360
97.835
98.665
99.575
99.690
100.520
102.020
102.905
103.955
105.095
106.355
107.215
108.115
109.860
111.000
112.455
113.615
115.215
116.480
118.665
119.645
121.550
123.260
125.170
126.480
128.330
129.650
131.570
133.580
135.115
137.810
139.410
141.100
141.840
140.920
142.495
143.980
145.095
147.285
148.040
150.455
151.000
154.360
157.495
158.745
160.000
161.000
161.335
162.885
163.175
164.000
164.670
165.770
165.625
165.960
166.195
166.595
166.550
166.430
165.840
166.000
165.610
164.670
164.000
164.000
162.810
160.905
160.865
159.905
158.905
157.650
156.215
155.100
154.390
153.810
152.885
150.925
150.195
148.120
147.450
146.905
145.830
144.905
144.240
142.550
141.955
140.995
140.100
139.340
138.215
138.000
137.100
136.335
135.625
135.000
134.000
134.260
133.995
132.885
132.000
131.645
131.765
132.000
132.000
132.000
132.000
132.000
132.820
133.720
134.050
133.810
134.000
134.215
135.000
135.955
135.630
136.645
137.100
138.260
139.005
139.595
140.000
141.570
141.860
142.960
144.005
145.100
145.425
146.765
147.160
148.000
149.080
150.260
151.000
151.690
152.650
153.905
154.810
155.590
156.240
156.620
157.645
158.000
158.940
159.195
159.785
160.100
160.840
160.690
160.760
161.000
160.690
160.905
159.900
160.070
160.425
159.180
159.745
158.790
158.005
157.430
156.160
156.000
155.240
154.145
152.975
151.100
150.525
148.720
147.980
147.380
145.740
144.885
143.665
142.865
141.215
139.075
138.195
135.690
135.000
133.230
132.000
131.410
130.240
128.550
127.450
126.235
125.470
123.900
123.020
121.550
120.360
119.160
118.765
116.900
115.840
115.425
113.955
113.000
112.240
111.240
110.260
109.805
109.095
108.120
107.790
107.190
106.450
106.100
105.805
104.760
104.735
104.100
103.760
103.240
103.100
103.290
102.860
102.550
102.335
102.905
102.690
102.475
102.410
102.405
102.805
102.410
102.505
102.665
102.505
103.000
103.095
103.095
103.000
103.310
103.430
103.890
104.120
104.145
105.005
104.595
105.645
105.500
105.665
106.525
106.595
107.190
107.505
107.200
107.905
108.000
108.405
108.540
109.000
109.220
109.240
109.450
110.195
110.240
110.215
110.545
110.550
110.495
110.745
110.750
110.940
110.430
110.405
109.880
110.000
110.195
109.860
109.650
109.380
108.550
108.905
108.890
107.215
107.355
107.020
105.810
104.245
103.745
103.310
102.900
102.140
101.100
100.000
100.100
100.000
99.335
98.900
97.455
97.140
96.335
95.240
94.745
93.690
93.000
92.410
91.745
90.145
89.550
88.340
87.650
86.690
86.000
84.310
83.905
83.240
82.095
81.555
80.500
79.995
78.955
78.405
77.425
76.570
75.590
75.430
74.860
74.000
73.145
72.120
71.455
71.000
70.905
70.000
69.800
68.230
68.430
68.000
67.690
67.665
67.140
66.860
66.550
65.885
65.260
65.160
65.020
64.860
65.000
64.350
64.040
63.760
63.865
63.220
62.555
62.690
62.570
62.690
62.000
62.235
62.000
62.095
62.380
61.620
61.500
61.305
61.120
61.480
61.575
61.100
61.450
61.000
61.165
61.355
60.880
61.000
61.335
61.240
61.320
60.740
61.100
61.335
61.335
60.905
60.760
61.260
61.495
61.640
61.740
62.000
62.000
62.430
62.240
62.405
62.760
62.685
63.100
63.140
63.115
63.620
64.150
63.850
64.075
64.095
64.000
64.120
64.005
64.240
64.545
64.140
63.260
63.195
63.845
63.575
62.355
62.335
62.595
62.355
62.650
62.645
62.000
62.000
62.570
62.500
61.450
61.640
61.340
61.215
60.980
60.900
60.260
60.020
59.840
59.020
59.290
58.905
58.575
57.205
57.455
56.890
56.315
55.760
55.100
55.095
55.140
54.300
53.720
53.430
52.230
52.000
51.905
51.545
51.110
50.385
49.690
49.715
49.130
49.000
48.305
47.705
46.130
44.470
44.000
43.475
43.000
42.860
42.575
43.110
43.460
43.455
43.195
42.705
42.775
42.335
41.550
41.000
40.045
39.215
39.190
39.100
38.660
38.565
37.990
38.360
38.260
37.910
37.715
37.300
36.385
36.200
36.000
36.000
36.000
35.980
35.905
35.455
35.095
35.200
35.000
34.905
34.780
34.705
34.200
33.830
33.620
33.745
33.550
33.225
33.205
33.000
33.000
33.095
33.095
32.905
32.860
33.000
32.745
32.805
32.160
32.765
32.605
32.540
32.000
32.330
32.000
31.970
31.970
32.195
31.800
31.955
31.855
31.690
31.740
32.135
32.075
32.295
31.765
31.700
32.000
31.970
31.470
31.870
31.550
31.390
31.905
31.850
31.875
31.925
31.690
32.045
32.200
32.195
31.910
32.210
31.880
31.880
32.460
32.135
31.840
31.660
32.260
31.870
31.795
31.510
31.785
31.845
31.500
31.455
32.000
31.620
31.410
31.960
31.810
31.660
32.240
32.180
31.760
31.800
32.010
31.695
31.675
31.675
31.565
31.345
31.545
31.445
31.785
30.980
30.780
30.910
30.645
30.540
30.295
30.570
30.020
30.090
30.440
30.270
30.000
30.020
29.675
29.640
29.570
29.260
29.310
28.890
28.705
28.570
28.745
28.000
28.240
27.800
28.000
28.020
27.900
27.445
27.000
26.800
26.795
26.655
26.425
26.110
26.295
25.860
25.320
25.440
24.990
24.630
24.570
24.340
23.750
23.745
23.335
23.210
23.200
22.780
22.360
22.410
22.750
22.460
22.425
21.155
21.710
20.335
20.740
20.415
20.590
20.000
20.020
20.000
19.885
19.660
20.000
19.520
19.140
19.250
19.100
18.910
18.685
18.575
18.310
18.310
17.945
17.860
17.575
17.460
17.095
17.095
17.195
17.000
17.000
16.870
16.690
16.690
16.765
16.130
16.210
16.300
16.240
16.000
15.900
15.110
15.565
15.455
15.335
14.940
14.860
14.765
15.350
14.750
14.450
14.885
14.560
14.805
14.240
14.095
13.780
14.110
13.960
14.250
13.890
13.530
13.880
13.645
13.490
13.355
13.120
13.100
13.270
13.425
13.130
13.345
13.000
12.795
13.240
12.980
13.110
12.790
12.910
12.450
12.690
13.215
12.730
12.710
12.335
12.100
12.685
12.630
12.300
12.400
12.550
12.210
12.000
12.550
12.330
12.490
12.270
12.000
12.000
12.260
12.480
12.205
12.240
12.350
12.000
12.200
12.200
12.095
12.235
12.000
12.000
12.110
11.980
11.880
12.000
12.140
12.140
11.860
11.850
12.140
11.860
12.000
11.860
12.000
12.120
11.860
12.000
11.800
12.000
11.860
11.765
11.905
12.000
12.140
12.000
11.605
11.210
11.570
11.705
11.340
11.545
11.690
11.345
11.290
11.530
11.550
11.335
11.450
11.110
11.215
11.345
11.145
11.000
11.240
11.195
11.290
11.000
10.810
11.020
10.905
11.000
11.220
11.000
10.905
11.100
10.905
10.860
11.000
11.095
10.905
10.465
10.795
10.215
10.565
10.675
10.565
10.450
10.570
10.440
10.535
10.205
10.190
10.260
10.200
10.400
9.765
9.545
9.980
10.000
9.690
9.860
9.670
9.490
9.445
9.095
9.570
9.090
9.440
9.000
8.705
9.095
8.990
8.825
8.800
8.645
8.740
8.465
8.430
8.095
8.150
8.240
7.870
7.980
8.110
7.800
7.430
7.380
7.680
7.655
7.530
7.110
7.350
7.490
7.140
7.100
7.110
7.110
7.110
6.890
7.000
7.000
6.760
7.000
6.595
7.000
6.465
6.540
6.360
6.300
5.915
6.600
6.455
6.335
6.095
6.200
6.240
6.240
6.130
6.000
6.240
6.360
5.300
5.890
5.205
5.645
5.705
5.795
5.060
5.340
5.230
4.820
4.580
5.165
5.570
4.430
5.140
4.450
4.240
4.195
4.000
4.735
4.000
4.480
4.000
4.000
4.020
4.480
4.000
4.095
4.110
4.000
4.000
4.000
4.000
4.240
4.000
4.000
4.000
4.000
4.000
4.000
4.000
4.000
4.000
4.000
4.000
3.860
4.000
4.000
4.000
4.000
4.000
3.800
4.000
3.550
3.660
3.980
3.905
3.785
0.430
0.375
0.260
0.520
0.565
0.360
0.855
0.500
0.340
0.440
0.380
0.440
0.535
0.385
0.465
0.200
0.675
0.385
0.090
0.480
0.290
0.000
0.385
0.525
0.330
0.655
0.475
0.280
0.380
0.200
0.650
0.350
0.280
0.605
0.190
0.360
0.525
0.480
0.550
0.380
0.330
0.360
0.360
0.565
0.540
0.380
0.360
0.460
0.290
0.190
0.565
0.360
0.290
0.295
0.190
0.290
0.190
0.615
0.565
0.290
0.335
0.380
0.290
0.280
0.480
0.295
0.340
0.665
0.295
0.190
0.575
0.340
0.735
0.460
0.400
0.635
0.540
0.295
0.280
0.420
0.610
0.335
0.190
0.385
0.385
0.435
0.520
0.450
0.385
0.350
0.190
0.280
0.280
0.590
0.430
0.330
0.295
0.385
0.485
0.290
0.290
0.290
0.290
0.380
0.450
0.190
0.290
0.290
0.330
0.530
0.685
0.520
0.380
0.180
0.380
0.360
0.465
0.575
0.715
0.190
0.380
0.190
0.510
0.430
0.190
0.580
0.575
0.505
0.440
0.435
0.530
0.280
0.430
0.280
0.425
0.480
0.430
0.600
0.290
0.190
0.335
0.480
0.290
0.380
0.670
0.575
0.380
0.500
0.755
0.290
0.540
0.430
0.580
0.190
0.440
0.480
0.240
0.505
0.440
0.680
0.340
0.610
0.475
0.620
0.580
0.600
0.465
0.330
0.510
0.610
0.690
0.535
0.535
0.510
0.400
0.815
0.340
0.090
0.360
0.580
0.340
0.550
0.420
0.655
0.510
0.755
0.465
0.435
0.360
0.450
0.705
0.340
0.475
0.190
0.645
0.420
0.290
0.605
0.190
0.650
0.580
0.585
0.605
0.290
0.555
0.565
0.435
0.465
0.290
0.330
0.710
0.190
0.360
0.585
0.280
0.340
0.460
0.500
0.440
0.335
0.440
0.395
0.190
0.290
0.610
0.190
0.295
0.340
0.395
0.190
0.290
0.755
0.435
0.655
0.600
0.335
0.385
0.530
0.190
0.190
0.290
0.190
0.190
0.380
0.440
0.280
0.330
0.340
0.385
0.440
0.435
0.190
0.360
0.330
0.420
0.340
0.485
0.395
0.190
0.360
0.530
0.605
0.290
0.435
0.335
0.445
0.380
0.290
0.525
0.465
0.545
0.335
0.535
0.605
0.745
0.600
0.480
0.440
0.330
0.290
0.340
0.385
0.395
0.395
0.090
0.605
0.675
0.520
0.190
0.190
0.700
0.495
0.630
0.675
0.430
0.290
0.290
0.605
0.380
0.230
0.480
0.200
0.280
0.335
0.435
0.565
0.810
0.190
0.655
0.335
0.460
0.190
0.445
0.190
0.290
0.190
0.435
0.330
0.445
0.290
0.360
0.600
0.290
0.395
0.330
0.190
0.340
0.380
0.295
0.295
0.290
0.360
0.705
0.460
0.430
0.280
0.360
0.505
0.190
0.430
0.280
0.190
0.545
0.190
0.190
0.190
0.280
0.190
0.190
0.425
0.280
0.290
0.290
0.645
0.430
0.190
0.395
0.505
0.340
0.390
0.190
0.560
0.585
0.565
0.525
0.290
0.770
0.190
0.440
0.450
0.385
0.635
0.675
0.480
0.635
0.565
0.450
0.350
0.680
0.605
0.690
0.625
0.245
0.525
0.590
0.535
0.520
0.690
0.190
0.330
0.670
0.440
0.280
0.190
0.575
0.605
0.430
0.830
0.770
0.590
0.290
0.615
0.485
0.335
0.380
0.290
0.485
0.665
0.500
0.540
0.425
0.480
0.335
0.480
0.525
0.440
0.280
0.585
0.290
0.610
0.485
0.435
0.435
0.585
0.430
0.280
0.565
0.335
0.330
0.290
0.710
0.440
0.395
0.360
0.190
0.680
0.430
0.430
0.680
0.575
0.380
0.525
0.840
0.525
0.345
0.885
0.360
0.290
0.430
0.330
0.290
0.190
0.425
0.420
0.380
0.440
0.440
0.190
0.380
0.710
0.550
0.190
0.290
0.190
0.460
0.435
0.525
0.460
0.715
0.390
0.575
0.475
0.290
0.440
0.585
0.290
0.385
0.460
0.190
0.190
0.280
0.290
0.360
0.690
0.610
0.380
0.625
0.340
0.460
0.430
0.430
0.360
0.390
0.460
0.395
0.565
0.460
0.500
0.600
0.430
0.675
0.340
0.530
0.530
0.335
0.465
0.280
0.675
0.665
0.440
0.395
0.610
0.835
0.615
0.270
0.450
0.465
0.750
0.695
0.470
0.625
0.595
0.210
0.550
0.600
0.535
0.390
0.600
0.435
0.420
0.580
0.490
0.615
0.425
0.390
0.220
0.500
0.530
0.430
0.445
0.540
0.665
0.120
0.550
0.655
0.590
0.465
0.465
0.680
0.300
0.700
0.600
0.445
0.350
0.685
0.390
0.380
0.455
0.390
0.450
0.630
0.450
0.360
0.650
0.250
0.610
0.535
0.220
0.535
0.645
0.330
0.725
0.495
0.250
0.360
0.530
0.390
0.440
0.320
1.100
0.330
0.290
0.640
0.705
0.260
0.360
0.615
0.390
0.590
0.310
0.650
0.360
0.530
0.325
0.795
0.250
0.490
0.470
0.720
0.650
0.430
0.645
0.635
0.475
0.250
0.350
0.545
0.510
0.360
0.625
0.750
0.495
0.190
0.470
0.395
0.190
0.845
0.495
0.495
0.495
0.220
0.845
0.595
0.365
0.575
0.470
0.695
0.595
0.360
0.750
0.605
0.320
0.505
0.600
0.320
0.530
0.775
0.500
0.250
0.370
0.495
0.250
0.320
0.590
0.365
0.275
0.450
0.410
0.545
0.510
0.465
0.835
0.555
0.350
0.505
0.605
0.595
0.515
0.550
0.595
0.400
0.555
0.595
0.360
0.480
0.565
0.635
0.665
0.400
0.725
0.460
0.525
0.600
0.560
0.275
0.280
0.515
0.220
0.130
0.220
0.565
0.410
0.310
0.540
0.320
0.420
0.450
0.450
0.510
0.370
0.455
0.715
0.450
0.470
0.605
0.365
0.360
0.460
0.700
0.420
0.455
0.130
0.310
0.340
0.525
0.450
0.310
0.595
0.465
0.220
0.540
0.310
0.475
0.415
0.495
0.390
0.220
0.410
0.425
0.470
0.750
0.540
0.350
0.360
0.605
0.360
0.325
0.555
0.390
0.495
0.805
0.505
0.450
0.540
0.325
0.610
0.325
0.500
0.350
0.220
0.320
0.220
0.325
0.340
0.320
0.320
0.320
0.550
0.370
0.540
0.220
0.655
0.610
0.550
0.450
0.470
0.525
0.360
0.490
0.460
0.620
0.335
0.310
0.560
0.700
0.325
0.475
0.485
0.705
0.220
0.550
0.220
0.620
0.450
0.310
0.755
0.310
0.365
0.280
0.705
0.410
0.600
0.225
0.270
1.040
0.415
0.635
0.375
0.840
0.510
0.410
0.605
0.260
0.220
0.350
0.545
0.560
0.260
0.730
0.510
0.625
0.695
0.605
0.550
0.370
0.470
0.420
0.510
0.420
0.465
0.630
0.585
0.370
0.360
0.755
0.570
0.460
0.455
0.505
0.605
0.365
0.220
0.465
0.465
0.590
0.425
0.570
0.360
0.745
0.425
0.350
0.370
0.250
0.420
0.415
0.220
0.540
0.470
0.555
0.895
0.410
0.470
0.595
0.365
0.665
0.560
0.450
0.410
0.310
0.555
0.210
0.510
0.800
0.840
0.460
0.460
0.845
0.450
0.475
0.560
0.780
0.465
0.570
0.320
0.695
0.505
0.550
0.555
0.365
0.735
0.370
0.455
0.625
0.455
0.560
0.380
0.555
0.365
0.555
0.310
0.620
0.515
0.220
0.460
0.430
0.835
0.685
0.505
0.230
0.310
0.670
0.625
0.540
0.415
0.525
0.220
0.465
0.500
0.390
0.805
0.855
0.360
0.450
0.765
0.695
0.365
0.350
0.310
0.515
0.600
0.410
0.460
0.390
0.365
0.625
0.380
0.580
0.390
0.220
0.360
0.515
0.600
0.560
0.585
0.510
0.505
0.465
0.895
0.415
0.360
0.495
0.630
0.610
0.730
0.510
0.410
0.500
0.640
0.410
0.515
0.820
0.640
0.825
0.635
0.780
0.490
0.635
0.640
0.410
0.450
0.400
0.600
0.425
0.350
0.685
0.720
0.705
0.465
0.750
0.705
0.695
0.805
0.450
0.635
0.855
0.465
0.470
0.650
0.775
0.690
0.460
0.460
0.320
0.645
0.540
0.635
0.805
0.590
0.510
0.610
0.475
0.840
0.550
0.490
0.955
0.800
0.220
0.815
0.600
0.455
0.595
1.000
0.615
0.745
0.220
0.635
0.325
0.490
0.470
0.450
0.660
0.835
0.610
0.610
0.615
0.565
0.590
0.550
0.610
0.615
0.665
0.495
0.445
0.745
0.220
0.220
0.640
0.740
0.515
0.420
0.685
0.395
0.490
0.590
