I [a.u.]
12.410
12.900
13.130
13.855
14.790
15.570
16.140
16.600
17.310
18.470
18.700
19.250
19.700
20.445
22.005
22.700
23.845
24.890
25.745
26.555
26.955
28.220
28.875
29.730
30.560
31.645
32.105
32.470
33.590
34.295
34.555
35.470
35.670
36.190
37.415
37.380
38.435
38.570
38.605
39.295
39.890
40.265
40.370
40.665
40.995
40.830
41.160
41.550
41.965
42.085
41.905
42.185
42.215
42.085
42.435
42.100
41.975
41.965
42.185
42.030
42.080
41.910
42.005
41.990
42.180
42.275
42.315
42.315
42.315
42.470
42.745
42.710
42.745
43.025
43.215
43.135
43.645
43.540
44.025
44.120
44.870
44.950
45.215
45.395
45.905
46.570
46.660
47.240
47.615
48.085
48.470
48.700
49.070
49.395
50.185
51.120
51.315
52.055
52.390
53.435
54.105
54.710
55.460
56.360
57.180
57.855
58.665
59.225
59.810
60.315
61.085
61.670
62.610
63.130
63.245
62.820
63.005
63.415
64.000
64.280
64.425
64.855
64.675
65.315
66.695
66.890
66.955
66.855
66.890
66.955
66.795
66.855
66.700
66.360
66.240
66.425
65.735
65.555
65.460
64.745
64.280
64.025
63.700
63.325
62.410
61.890
61.660
61.140
59.950
59.810
58.985
58.695
58.415
57.855
57.285
56.890
56.525
55.885
55.540
55.375
54.745
54.615
54.245
53.950
53.775
53.225
53.125
52.840
52.195
51.505
51.670
51.470
51.550
51.470
51.470
51.315
51.215
51.240
51.315
51.280
51.280
51.020
51.185
51.180
51.280
51.760
51.760
51.920
52.700
53.145
53.365
53.770
54.050
54.295
54.470
54.710
54.985
55.590
56.025
56.620
57.095
57.325
57.605
58.280
58.855
59.050
59.350
59.855
60.085
60.990
61.130
61.425
61.985
62.100
62.605
63.185
63.950
63.870
64.115
64.350
64.505
64.515
64.890
65.070
64.710
65.185
64.985
64.855
64.890
65.100
64.810
64.855
64.715
64.360
64.455
64.165
63.895
63.650
63.505
62.985
62.600
62.095
61.550
60.870
60.515
60.080
59.475
59.130
58.425
57.890
57.525
56.710
56.575
55.460
54.650
54.400
54.145
53.375
52.545
51.760
51.215
50.750
50.525
49.695
49.425
48.940
48.435
47.735
47.085
46.360
46.085
45.715
44.710
44.480
43.640
43.185
42.565
42.145
41.985
41.280
41.005
39.890
38.890
38.550
38.470
37.950
37.180
36.285
35.605
35.470
34.920
34.615
33.990
33.130
33.040
32.470
32.035
31.215
30.695
29.650
29.100
28.410
27.600
27.220
26.450
25.825
24.925
24.115
23.215
22.505
22.080
21.040
19.505
19.470
18.975
18.215
17.430
16.470
16.060
15.470
14.585
13.505
13.175
12.790
11.600
11.225
10.410
9.935
9.215
8.445
8.030
7.165
6.700
6.585
6.370
5.530
5.350
5.140
4.055
3.815
3.505
3.350
3.310
3.505
3.085
2.660
2.505
2.505
2.505
2.370
1.835
2.000
1.700
1.335
1.660
1.280
1.280
0.955
1.155
0.780
0.605
0.800
0.600
0.620
0.700
0.700
0.505
0.505
0.700
0.505
0.505
0.505
0.505
0.505
0.505
0.505
0.505
0.505
0.505
0.505
0.505
0.505
0.505
0.505
0.505
0.505
0.505
0.505
0.505
0.505
0.505
0.505
0.505
0.505
0.505
0.505
0.505
0.505
0.505
0.505
0.505
0.505
0.505
0.505
0.505
0.505
0.505
0.505
0.405
0.505
0.505
0.505
0.505
0.505
0.505
0.505
0.505
0.505
0.505
0.505
0.505
0.505
0.325
0.505
0.505
0.505
0.505
0.505
0.505
0.505
0.505
0.505
0.505
0.505
0.505
0.505
0.505
0.505
0.505
0.505
0.505
0.505
0.505
0.505
0.505
0.505
0.505
0.505
0.505
0.505
0.505
0.310
0.405
0.470
0.505
0.505
0.410
0.505
0.505
0.505
0.505
0.505
0.410
0.700
0.505
0.505
0.505
0.505
0.505
0.505
0.505
0.505
0.505
0.410
0.505
0.505
0.505
0.505
0.505
0.505
0.505
0.505
0.585
0.505
0.505
0.505
0.505
0.505
0.505
0.505
0.505
0.600
0.505
0.605
0.505
0.505
0.505
0.505
0.505
0.505
0.505
0.505
0.505
0.505
0.505
0.505
0.505
0.505
0.505
0.505
0.505
0.505
0.505
0.505
0.505
0.405
0.405
0.505
0.505
0.505
0.405
0.505
0.605
0.605
0.505
0.405
0.605
0.505
0.405
0.505
0.605
0.505
0.405
0.505
0.505
0.405
0.405
0.505
0.505
0.505
0.405
0.505
0.505
0.505
0.505
0.405
0.425
0.505
0.505
0.505
0.505
0.410
0.505
0.505
0.505
0.505
0.405
0.505
0.505
0.470
0.505
0.505
0.505
0.505
0.505
0.505
0.505
0.505
0.505
0.505
0.505
0.505
0.505
0.505
0.505
0.505
0.505
0.505
0.505
0.505
0.505
0.505
0.505
0.505
0.505
0.505
0.505
0.505
0.505
0.505
0.505
0.505
0.505
0.505
0.505
0.745
0.505
0.505
0.585
0.505
0.505
0.505
0.505
0.505
0.505
0.505
0.605
0.585
0.585
0.660
0.540
0.505
0.735
0.885
0.755
0.505
0.635
0.660
0.620
0.875
0.700
0.505
0.620
0.845
0.680
0.740
0.700
1.085
0.945
0.730
0.685
0.700
0.800
0.990
0.780
0.730
1.115
0.835
0.940
1.090
0.890
0.840
1.040
0.860
1.045
1.175
0.505
0.505
0.685
0.875
0.835
1.130
0.585
0.750
1.135
0.860
0.955
0.640
1.220
1.030
0.760
0.745
0.505
0.660
0.855
1.030
0.600
1.135
0.540
0.505
1.030
0.755
0.800
1.085
0.650
0.760
0.740
0.895
0.700
0.750
0.795
0.505
0.855
0.600
0.585
0.700
0.650
0.600
0.505
0.860
0.890
0.505
0.505
0.650
0.505
0.660
0.650
0.650
0.505
0.505
0.505
0.600
0.505
0.505
0.505
0.505
0.505
0.505
0.505
0.505
0.505
0.505
0.505
0.505
0.505
0.505
0.505
0.505
0.505
0.505
0.505
0.505
0.505
0.505
0.505
0.505
0.505
0.505
0.410
0.505
0.505
0.505
0.600
0.505
0.505
0.505
0.505
0.505
0.505
0.505
0.505
0.600
0.505
0.505
0.505
0.505
0.505
0.505
0.505
0.505
0.505
0.505
0.505
0.505
0.505
0.505
0.405
0.505
0.505
0.505
0.505
0.505
0.505
0.505
0.505
0.505
0.505
0.505
0.505
0.505
0.505
0.505
0.505
0.505
0.505
0.505
0.505
0.505
0.605
0.505
0.405
0.405
0.505
0.505
0.405
0.505
0.505
0.585
0.505
0.505
0.505
0.505
0.605
0.505
0.505
0.605
0.505
0.505
0.505
0.505
0.505
0.505
0.505
0.505
0.505
0.505
0.505
0.605
0.505
0.585
0.505
0.600
0.505
0.505
0.540
0.505
0.505
0.540
0.505
0.600
0.505
0.505
0.505
0.600
0.505
0.505
0.505
0.505
0.505
0.505
0.505
0.505
0.505
0.505
0.650
0.505
0.505
0.505
0.505
0.505
0.505
0.505
0.600
0.505
0.605
0.505
0.605
0.585
0.760
0.605
0.505
0.805
0.605
0.505
0.700
0.605
0.585
0.800
0.585
0.650
0.685
0.755
0.640
0.505
0.650
0.780
0.600
0.795
1.040
0.925
0.740
0.740
0.755
0.605
0.720
0.600
1.000
0.705
0.995
0.895
1.025
0.505
0.935
0.890
1.195
0.505
0.755
0.700
0.760
0.700
0.905
0.835
0.775
0.880
1.030
0.730
0.945
0.925
1.180
1.110
1.125
0.915
1.155
0.980
1.135
1.250
1.055
1.055
0.720
0.910
0.990
1.210
1.120
1.225
1.165
1.060
1.370
1.205
1.375
1.115
1.215
1.065
1.150
1.310
1.230
1.265
1.075
1.110
1.215
1.170
1.470
1.360
1.375
1.360
0.955
1.250
1.505
1.365
1.265
1.425
1.405
1.375
1.440
1.455
1.315
1.155
1.230
1.070
1.425
1.605
1.135
1.450
1.580
0.935
1.275
1.580
1.375
1.160
1.165
1.310
1.325
1.200
1.115
1.160
1.190
1.325
1.600
1.700
1.605
1.165
1.490
1.360
1.400
1.220
1.370
1.310
1.370
1.250
1.065
1.155
0.915
1.310
1.510
1.330
1.525
1.275
1.245
1.505
1.270
1.360
1.505
1.550
1.370
1.155
1.405
1.520
1.210
1.410
0.975
1.600
1.010
1.000
1.180
1.315
1.395
1.655
1.520
1.130
1.210
1.375
1.155
1.405
1.310
1.375
1.030
1.425
1.410
1.700
1.215
1.025
1.215
1.620
1.425
1.045
