I [a.u.]
25.135
26.250
27.345
28.425
30.310
30.590
32.250
33.920
35.250
37.755
38.495
40.195
42.290
43.765
45.920
47.695
49.390
51.005
53.250
54.505
56.740
58.950
60.630
62.195
64.290
65.760
67.250
68.955
70.155
72.395
74.305
75.425
77.250
78.700
80.350
81.445
82.710
83.195
84.260
85.830
86.235
87.865
88.005
89.210
90.385
90.590
91.730
91.865
92.935
93.210
93.095
95.075
94.445
95.265
93.905
94.965
94.635
95.015
95.980
95.290
96.740
94.445
96.250
95.920
96.885
97.570
96.580
98.675
96.835
98.940
98.175
99.790
100.105
100.125
102.035
100.800
103.940
101.795
104.635
103.830
105.965
106.730
107.455
109.995
108.805
112.170
110.370
114.225
112.905
115.115
116.390
117.445
120.575
119.480
124.230
122.385
127.435
125.385
130.515
129.155
132.900
133.650
135.695
138.975
139.000
143.575
141.980
147.430
145.365
151.555
148.470
154.435
152.920
157.280
155.780
155.730
156.845
156.960
159.860
159.035
161.405
159.765
162.405
161.960
168.645
164.045
168.835
163.870
168.190
163.670
167.495
164.715
167.445
163.965
165.305
162.985
163.020
161.405
161.095
159.895
158.345
157.595
156.260
154.610
152.445
152.950
149.390
148.550
145.440
145.500
142.425
142.745
139.275
140.285
136.635
138.110
134.290
135.090
131.720
132.335
129.630
130.360
127.730
128.720
125.745
126.470
123.725
124.500
122.155
122.745
120.845
121.365
119.650
119.750
118.250
118.170
117.060
117.665
116.665
115.870
115.075
114.595
114.155
114.040
114.155
113.840
114.020
113.460
115.035
114.305
115.265
114.400
115.590
114.400
116.380
114.830
116.080
115.075
117.145
115.265
117.090
115.815
116.645
116.555
117.130
117.025
117.065
117.335
117.265
117.745
115.615
117.400
115.250
117.450
115.170
116.105
115.250
115.170
114.290
115.090
113.800
113.265
112.250
111.405
111.445
109.170
109.080
107.020
106.785
104.870
103.900
102.500
101.585
99.250
98.210
97.225
95.460
94.170
92.710
91.365
89.510
87.800
86.745
84.265
82.830
80.890
79.975
77.840
76.650
74.840
73.075
71.620
69.870
68.820
66.635
66.035
63.910
62.540
60.975
59.760
58.170
56.480
55.250
53.905
53.060
51.250
50.250
48.920
48.250
47.220
45.980
44.525
43.695
42.540
41.175
40.265
39.250
38.250
37.490
35.425
35.420
34.575
34.115
32.635
32.250
31.455
30.880
29.920
29.000
28.250
27.885
26.960
26.155
25.500
24.870
24.345
23.420
22.385
22.290
21.045
20.595
20.650
19.250
18.905
19.170
18.155
17.735
17.170
16.745
16.060
15.140
14.620
14.265
14.085
13.495
12.290
12.590
11.785
11.590
10.880
10.195
9.920
9.840
9.210
8.935
7.960
7.735
7.250
7.130
7.280
6.500
6.500
6.250
5.715
5.730
5.960
5.445
5.500
5.695
5.085
5.250
5.155
4.520
4.925
4.670
4.525
4.760
4.660
3.960
4.500
4.285
4.360
4.590
4.105
3.330
4.295
4.220
5.170
5.130
3.950
3.450
3.730
4.160
4.650
4.705
4.815
4.535
5.055
4.320
5.055
5.250
5.250
5.500
5.535
5.445
5.580
5.735
5.670
5.575
5.290
5.910
6.075
5.880
5.870
6.055
5.920
5.865
6.075
6.170
6.155
6.250
5.685
5.825
5.785
5.535
5.910
6.170
5.630
5.250
5.465
5.495
5.445
5.730
5.290
5.015
5.210
5.155
4.825
5.250
5.250
4.735
4.625
4.920
4.340
4.645
4.730
4.395
4.220
4.290
4.260
3.425
3.345
3.910
3.640
3.760
3.495
3.535
3.330
3.290
3.250
3.505
3.250
3.250
3.580
3.250
3.250
3.250
3.330
3.330
3.250
3.250
3.250
3.345
3.250
3.250
3.250
3.290
3.330
3.250
3.250
3.330
3.330
3.590
3.250
3.330
3.330
3.250
3.250
3.330
3.290
3.250
3.330
3.250
3.250
3.250
3.250
3.330
3.290
3.540
3.250
3.330
3.890
3.445
4.165
3.480
3.495
3.250
3.595
4.100
4.165
3.290
4.775
4.000
3.790
4.060
4.690
4.560
4.180
4.885
4.770
4.110
4.365
4.335
4.895
5.115
4.980
4.980
4.730
4.370
5.060
4.975
5.155
5.155
5.495
4.810
5.250
4.810
5.250
5.495
5.525
5.330
5.250
5.250
5.250
5.445
5.330
5.000
5.250
5.385
5.830
5.660
5.670
5.590
5.445
6.060
5.560
5.675
6.035
5.925
5.715
6.155
6.250
6.250
6.250
6.155
6.155
5.910
6.115
6.170
6.250
6.005
6.250
6.250
6.250
6.250
6.330
6.595
6.250
6.290
6.250
6.345
6.635
6.250
6.250
6.345
6.590
7.115
6.910
6.425
6.710
6.810
7.210
7.620
7.250
7.190
7.445
7.445
7.445
7.725
7.815
8.075
7.920
8.170
7.815
8.055
7.945
8.250
8.445
8.695
8.825
8.290
8.695
9.000
8.765
8.960
9.000
9.000
9.250
9.000
9.535
9.540
9.715
10.155
10.055
10.000
10.000
10.250
10.250
10.250
10.250
10.250
10.425
11.075
10.560
11.155
11.200
11.005
11.250
11.495
11.440
11.385
11.345
12.170
12.155
12.005
12.250
12.005
12.250
12.970
13.005
12.910
13.155
13.290
13.415
13.345
13.240
13.810
14.170
13.760
14.005
14.345
14.495
15.015
15.005
14.675
14.480
15.155
15.250
15.345
15.345
15.440
15.140
15.620
16.250
16.250
16.250
16.345
16.250
16.250
16.445
16.595
16.745
16.500
16.580
16.700
16.880
16.960
16.925
17.445
17.250
17.345
17.495
17.250
17.140
17.910
17.810
17.790
17.540
17.385
17.345
17.960
17.755
17.885
17.925
18.170
17.975
17.805
18.115
17.870
18.250
17.910
17.660
18.055
17.910
17.925
18.250
17.965
17.920
18.250
17.830
17.595
17.635
17.005
17.250
17.095
17.540
17.170
16.910
17.155
16.525
16.865
16.425
16.345
16.540
16.345
16.250
16.500
16.345
16.250
15.910
16.250
16.005
16.460
15.975
15.630
15.480
15.920
15.920
15.640
15.580
15.290
15.540
15.360
15.225
15.030
15.210
14.945
14.635
14.345
14.580
14.425
14.250
14.405
14.365
14.165
13.655
13.920
13.540
14.075
13.655
13.250
13.250
13.250
13.445
13.500
13.055
13.250
13.105
12.755
13.170
13.445
12.880
13.000
12.880
12.790
12.910
12.695
12.445
12.150
12.675
12.250
12.540
12.155
12.195
12.250
12.095
12.170
11.725
12.250
11.910
11.560
12.000
12.130
11.905
11.580
11.690
11.790
11.485
11.825
11.630
11.580
11.540
11.620
11.345
11.485
11.425
11.250
11.385
11.710
11.290
11.250
11.690
11.540
11.250
11.345
11.250
11.250
11.345
11.790
11.540
11.345
11.290
11.250
11.330
11.250
11.250
11.445
11.290
11.250
11.005
11.250
11.250
11.535
11.690
11.635
11.345
11.385
11.385
11.735
11.250
11.595
11.620
11.675
11.680
11.250
11.250
11.445
11.565
11.710
11.485
11.210
11.345
11.385
11.580
11.345
11.290
11.485
11.385
11.250
11.385
11.635
11.440
11.200
11.330
11.540
11.580
11.305
11.870
11.635
11.715
11.345
11.540
11.580
11.290
11.250
11.560
11.385
11.250
11.695
11.330
11.500
11.330
11.385
11.250
11.500
11.250
11.250
11.495
11.250
11.595
11.250
11.210
11.250
11.075
11.155
11.170
11.440
11.250
11.155
11.000
11.250
11.515
11.500
11.000
10.905
10.580
11.170
10.880
11.070
10.805
10.905
10.940
10.660
10.635
10.635
10.590
10.635
10.790
10.345
10.250
10.385
10.250
10.595
10.250
10.155
10.345
10.250
10.055
10.405
10.075
10.250
9.715
10.000
10.055
9.500
9.790
9.560
9.250
9.250
9.535
9.290
9.210
9.250
9.075
8.960
9.195
8.920
8.865
8.785
8.290
8.290
8.250
8.575
8.385
8.210
8.005
8.250
8.235
8.055
7.910
7.290
7.385
7.385
7.445
7.250
7.695
7.630
6.975
7.190
7.015
6.910
6.965
6.725
6.540
6.385
6.880
6.590
6.425
6.500
6.290
6.635
6.290
6.250
6.330
6.250
6.250
6.290
6.155
6.250
6.330
6.250
6.250
6.055
5.935
6.250
6.055
6.250
6.250
6.020
6.075
5.905
5.715
5.385
5.870
6.015
5.565
5.810
5.785
5.345
5.345
5.250
5.495
5.250
5.250
5.500
5.500
5.250
5.170
4.905
5.155
5.090
5.250
5.000
5.250
5.060
4.570
4.715
5.075
4.735
4.920
5.060
4.575
4.305
4.355
4.195
4.315
4.025
4.565
3.480
3.575
3.880
3.790
3.695
4.120
