I [a.u.]
24.120
25.100
25.955
27.435
28.440
29.975
31.400
32.635
33.955
35.485
36.725
38.435
40.435
42.195
44.195
45.785
47.555
49.060
50.680
53.025
54.620
56.305
58.130
59.775
61.595
63.115
64.440
66.205
67.880
69.960
70.525
72.590
74.350
75.965
76.690
78.595
79.435
80.585
81.210
82.120
83.110
83.875
85.020
85.975
86.195
86.690
87.500
88.945
89.385
89.450
89.920
90.870
91.075
91.160
91.015
91.150
91.195
91.365
91.920
92.270
92.355
92.385
92.645
92.595
93.255
93.255
94.115
94.550
95.255
95.255
96.055
96.450
96.805
97.485
97.930
98.595
99.400
99.880
101.060
101.935
103.060
104.020
104.510
105.650
107.115
108.155
109.210
110.405
111.970
112.630
114.515
114.910
117.000
118.185
120.165
121.980
123.440
125.175
127.070
128.600
130.365
132.060
134.400
136.645
138.415
140.975
142.510
144.400
146.060
147.840
150.135
152.225
153.755
155.455
155.925
155.170
156.625
157.520
158.995
160.030
160.415
161.940
161.750
164.515
167.070
168.015
168.025
168.365
168.080
168.025
168.195
168.955
168.565
168.115
167.755
167.010
166.470
165.560
164.835
163.795
162.740
161.980
161.005
160.030
158.505
157.710
155.880
154.310
152.335
151.415
150.135
148.055
147.020
146.165
145.070
144.415
143.970
142.730
141.695
140.730
139.635
138.605
137.645
136.780
135.870
135.125
134.600
134.250
133.695
132.835
132.540
131.935
131.645
131.365
131.315
131.075
130.490
130.730
130.450
130.270
130.165
130.070
129.835
130.160
131.065
130.585
131.320
131.585
133.270
134.400
134.745
135.640
136.165
136.940
137.925
138.595
139.260
140.735
141.215
142.545
143.510
144.310
145.075
146.160
147.030
147.400
149.080
150.125
150.780
152.210
153.260
153.805
154.740
155.550
156.310
156.900
158.000
158.645
159.415
160.260
160.405
160.510
160.925
160.595
161.310
160.840
160.830
160.740
160.400
160.115
159.595
159.090
158.640
157.905
157.080
156.215
155.360
154.540
153.785
152.685
151.545
150.305
148.080
147.315
146.405
144.595
143.590
142.180
141.220
139.510
138.315
137.030
135.320
133.885
132.390
130.825
129.840
128.345
127.305
125.730
124.310
123.015
121.825
120.990
119.510
118.740
118.055
115.840
115.065
114.490
112.680
112.500
111.775
110.355
109.915
108.830
108.075
107.315
106.740
105.835
105.260
104.830
104.010
103.595
103.015
102.245
101.845
101.975
101.405
101.080
100.925
100.545
99.875
99.585
99.830
99.820
99.485
99.780
100.065
99.485
99.975
99.585
99.685
100.295
100.740
100.020
101.080
101.340
101.215
101.775
101.835
102.055
102.640
102.500
102.925
103.270
103.390
103.910
104.170
104.630
105.385
105.395
105.555
106.355
106.405
106.735
107.005
107.055
107.260
107.450
108.250
108.390
108.515
108.630
108.450
108.680
108.725
109.265
109.015
109.385
109.070
109.295
109.360
109.190
109.065
109.125
108.345
107.635
107.585
107.255
107.005
106.535
106.150
105.920
105.595
104.245
103.735
103.395
102.550
102.245
101.270
99.685
98.690
98.255
97.120
96.400
95.355
94.630
93.540
93.595
93.885
92.535
91.535
90.925
90.055
88.690
88.150
87.475
86.205
85.365
83.955
83.485
82.765
81.490
80.920
80.115
79.545
78.640
77.735
76.535
76.120
75.255
74.680
74.255
73.155
72.255
71.595
70.880
70.150
69.860
69.235
68.510
67.875
67.350
67.265
66.575
66.060
65.690
64.995
64.720
64.440
64.005
64.005
64.005
63.235
63.250
62.255
62.255
61.835
61.910
61.285
61.040
60.910
60.675
60.590
60.430
59.880
59.680
59.775
59.535
59.485
59.150
59.090
59.055
59.015
59.255
58.870
58.815
58.630
58.630
58.475
58.355
58.255
58.005
58.005
58.160
57.650
57.540
57.440
57.160
57.205
57.350
57.200
57.255
56.345
56.245
56.355
56.350
55.590
55.695
55.215
54.900
55.150
54.975
54.340
54.195
54.195
53.670
53.535
53.440
53.025
51.695
51.550
51.005
50.535
50.335
49.660
48.440
48.110
47.060
46.450
44.995
44.330
43.015
42.675
41.110
40.160
38.520
37.535
35.340
34.435
33.145
32.195
31.310
29.485
28.355
26.870
26.195
24.560
23.395
22.050
20.690
19.195
18.545
16.970
16.535
15.520
14.205
13.195
12.095
11.430
10.535
9.580
9.385
8.580
7.440
7.005
6.195
6.110
6.195
5.235
4.930
4.435
3.895
3.195
3.195
3.195
3.195
3.195
2.850
2.865
2.290
2.340
2.195
2.290
2.195
2.100
2.195
1.870
1.715
1.560
1.665
1.385
1.540
1.200
1.385
1.490
1.375
1.290
1.000
1.425
1.050
0.895
0.955
0.830
0.945
0.990
0.760
0.860
1.100
0.830
0.620
0.995
0.845
0.290
0.765
0.630
0.435
0.710
0.655
0.520
0.620
0.710
0.755
0.540
0.570
0.295
0.675
0.615
0.625
0.665
0.295
0.570
0.575
0.395
0.290
0.735
0.765
0.195
0.665
0.290
0.495
0.530
0.295
0.195
0.720
0.385
0.675
0.435
0.290
0.630
0.580
0.425
0.375
0.375
0.395
0.530
0.385
0.290
0.475
0.295
0.470
0.385
0.290
0.485
0.630
0.295
0.620
0.520
0.300
0.530
0.520
0.385
0.435
0.395
0.425
0.340
0.340
0.665
0.385
0.340
0.445
0.530
0.290
0.415
0.290
0.290
0.430
0.425
0.290
0.385
0.300
0.480
0.395
0.540
0.385
0.570
0.280
0.195
0.605
0.340
0.385
0.485
0.750
0.195
0.340
0.375
0.385
0.440
0.195
0.280
0.280
0.540
0.400
0.380
0.195
0.195
0.300
0.195
0.195
0.535
0.485
0.330
0.195
0.330
0.195
0.195
0.195
0.195
0.195
0.340
0.330
0.295
0.290
0.385
0.340
0.435
0.195
0.295
0.290
0.195
0.280
0.295
0.195
0.375
0.290
0.195
0.430
0.195
0.195
0.195
0.195
0.195
0.195
0.195
0.195
0.340
0.195
0.195
0.195
0.290
0.195
0.195
0.340
0.195
0.385
0.395
0.280
0.195
0.290
0.195
0.425
0.195
0.195
0.195
0.290
0.290
0.300
0.340
0.290
0.195
0.290
0.195
0.330
0.195
0.195
0.375
0.195
0.290
0.195
0.195
0.280
0.195
0.195
0.195
0.490
0.195
0.195
0.280
0.195
0.195
0.385
0.195
0.195
0.290
0.195
0.290
0.195
0.195
0.385
0.385
0.195
0.195
0.195
0.195
0.195
0.195
0.340
0.195
0.195
0.195
0.195
0.195
0.195
0.340
0.195
0.195
0.195
0.195
0.195
0.195
0.195
0.290
0.195
0.195
0.195
0.195
0.195
0.340
0.195
0.095
0.295
0.195
0.195
0.195
0.195
0.195
0.195
0.195
0.195
0.195
0.195
0.195
0.195
0.195
0.195
0.195
0.195
0.195
0.195
0.195
0.195
0.300
0.195
0.300
0.290
0.195
0.195
0.195
0.195
0.195
0.195
0.195
0.195
0.195
0.195
0.195
0.195
0.195
0.195
0.195
0.195
0.195
0.195
0.195
0.195
0.195
0.280
0.280
0.100
0.195
0.195
0.195
0.195
0.195
0.195
0.290
0.195
0.195
0.195
0.195
0.195
0.195
0.100
0.195
0.195
0.195
0.290
0.195
0.100
0.195
0.195
0.195
0.195
0.280
0.195
0.195
0.195
0.195
0.195
0.195
0.195
0.195
0.195
0.195
0.195
0.195
0.100
0.195
0.195
0.195
0.195
0.195
0.195
0.195
0.195
0.195
0.195
0.195
0.195
0.195
0.195
0.195
0.195
0.295
0.195
0.195
0.195
0.195
0.195
0.195
0.195
0.195
0.195
0.195
0.195
0.195
0.195
0.195
0.195
0.195
0.195
0.195
0.195
0.280
0.195
0.195
0.195
0.195
0.195
0.195
0.095
0.195
0.195
0.195
0.095
0.195
0.195
0.195
0.195
0.195
0.195
0.290
0.290
0.195
0.195
0.385
0.195
0.290
0.290
0.195
0.195
0.435
0.195
0.280
0.290
0.290
0.195
0.195
0.290
0.195
0.195
0.340
0.340
0.195
0.195
0.195
0.195
0.195
0.290
0.340
0.195
0.195
0.195
0.195
0.195
0.195
0.195
0.195
0.195
0.195
0.195
0.195
0.195
0.195
0.340
0.290
0.195
0.195
0.195
0.340
0.195
0.195
0.300
0.195
0.195
0.290
0.195
0.195
0.195
0.290
0.195
0.295
0.195
0.195
0.195
0.290
0.195
0.195
0.195
0.195
0.195
0.195
0.195
0.195
0.195
0.195
0.195
0.195
0.195
0.195
0.195
0.195
0.195
0.195
0.195
0.195
0.195
0.195
0.195
0.195
0.290
0.195
0.195
