I [a.u.]
50.505
52.420
54.870
56.855
59.695
62.060
64.350
66.680
69.785
73.390
75.905
79.560
82.550
86.450
90.190
93.845
97.680
101.560
105.575
109.785
113.795
118.030
122.495
127.100
130.740
135.500
139.800
143.870
148.880
153.245
157.855
162.045
166.285
171.415
175.870
179.745
184.490
188.440
192.395
196.690
200.500
204.360
207.505
210.870
213.990
217.785
220.870
223.700
226.280
227.700
230.640
233.560
235.185
237.445
239.305
240.365
241.835
242.495
244.220
255.000
255.000
255.000
255.000
255.000
255.000
255.000
255.000
255.000
255.000
255.000
255.000
255.000
255.000
255.000
255.000
255.000
255.000
255.000
255.000
255.000
255.000
255.000
255.000
255.000
255.000
255.000
255.000
255.000
255.000
255.000
255.000
255.000
255.000
255.000
255.000
255.000
255.000
255.000
255.000
255.000
255.000
255.000
255.000
255.000
255.000
255.000
255.000
255.000
255.000
255.000
255.000
255.000
255.000
255.000
255.000
255.000
255.000
255.000
255.000
255.000
255.000
255.000
255.000
255.000
255.000
255.000
255.000
255.000
255.000
255.000
255.000
255.000
255.000
255.000
255.000
255.000
255.000
255.000
255.000
255.000
255.000
255.000
255.000
255.000
255.000
255.000
255.000
255.000
255.000
255.000
255.000
255.000
255.000
255.000
255.000
255.000
255.000
255.000
255.000
255.000
255.000
255.000
255.000
255.000
255.000
255.000
255.000
255.000
255.000
255.000
255.000
255.000
255.000
255.000
255.000
255.000
255.000
255.000
255.000
255.000
255.000
255.000
255.000
255.000
255.000
255.000
255.000
255.000
255.000
255.000
255.000
255.000
255.000
255.000
255.000
255.000
255.000
255.000
255.000
255.000
255.000
255.000
255.000
255.000
255.000
255.000
255.000
255.000
255.000
255.000
255.000
255.000
255.000
255.000
255.000
255.000
255.000
255.000
255.000
255.000
255.000
255.000
255.000
255.000
255.000
255.000
255.000
255.000
255.000
255.000
255.000
255.000
255.000
255.000
255.000
255.000
255.000
255.000
255.000
255.000
255.000
255.000
255.000
255.000
255.000
255.000
255.000
255.000
255.000
255.000
255.000
255.000
255.000
255.000
255.000
255.000
255.000
255.000
255.000
255.000
255.000
255.000
255.000
255.000
255.000
255.000
255.000
255.000
255.000
255.000
255.000
255.000
255.000
255.000
255.000
255.000
255.000
255.000
255.000
255.000
255.000
255.000
255.000
255.000
255.000
255.000
255.000
255.000
255.000
255.000
255.000
255.000
255.000
255.000
255.000
255.000
255.000
255.000
255.000
251.270
217.220
214.470
213.750
213.740
213.070
212.810
211.980
211.615
211.385
211.085
211.015
210.870
210.965
210.955
210.965
211.075
211.570
211.315
211.095
211.360
211.970
212.320
212.295
213.435
213.185
213.990
213.870
214.620
214.450
214.425
216.185
216.455
216.590
216.570
216.560
217.165
217.325
217.430
217.785
218.025
218.300
218.785
218.870
218.045
217.785
217.045
217.350
216.700
215.880
215.360
215.055
214.465
213.785
212.380
210.990
210.870
210.695
210.060
209.045
208.000
206.560
203.015
200.655
198.960
197.240
195.450
194.535
193.820
192.785
192.120
190.690
188.500
186.270
184.360
182.790
181.220
178.990
178.095
176.505
174.235
171.785
169.775
167.145
165.005
163.060
161.380
160.155
158.620
156.940
154.655
151.585
149.550
146.870
145.660
144.685
143.375
142.405
140.785
139.020
136.895
134.190
132.180
130.665
129.680
128.850
128.310
128.075
126.835
125.170
123.160
122.485
120.215
119.000
118.045
117.870
118.050
117.965
117.360
116.030
114.785
112.795
111.580
110.150
109.300
109.685
110.700
110.785
110.175
109.355
108.060
106.445
105.590
103.965
103.310
103.410
104.990
106.085
106.260
105.605
104.430
102.785
101.610
100.335
99.190
100.020
101.870
102.280
102.865
102.730
101.560
99.375
98.490
96.645
95.860
95.680
96.865
98.870
101.080
101.255
100.420
98.870
97.870
95.780
94.085
93.530
94.175
97.270
99.850
101.665
101.655
100.290
98.870
97.475
95.595
93.855
93.155
95.120
98.170
101.470
101.990
101.080
98.870
97.295
95.275
92.775
89.885
89.680
92.870
96.060
96.955
97.695
96.160
93.895
92.000
89.575
86.635
83.300
85.485
88.205
91.955
94.580
94.355
92.360
89.905
86.680
84.680
81.780
78.170
77.870
81.430
84.870
86.585
85.955
84.610
82.375
79.870
76.570
73.155
70.490
69.945
72.365
75.355
77.170
77.260
75.245
72.510
69.990
66.870
64.300
61.575
60.165
62.170
65.490
66.870
66.655
64.630
60.975
58.075
56.210
53.655
50.785
49.965
51.130
55.360
58.340
59.295
58.775
57.420
55.525
53.240
51.250
48.655
47.245
47.140
47.870
49.700
50.360
49.785
49.085
47.870
46.340
44.870
43.350
42.010
41.420
41.585
43.135
44.550
45.400
44.920
43.480
42.270
41.055
39.790
38.535
37.870
37.870
39.360
40.635
41.170
41.320
40.260
39.300
37.690
36.670
34.870
34.055
34.170
34.585
35.000
36.870
37.385
37.160
35.350
34.965
34.070
33.150
32.145
32.050
31.965
32.600
33.870
34.055
34.375
34.140
33.870
32.405
31.870
31.385
31.245
30.310
31.060
31.265
31.785
32.205
32.240
31.870
31.965
30.965
30.785
30.365
29.965
29.680
30.195
30.750
31.440
31.780
31.590
31.870
31.310
30.915
30.160
29.680
29.665
29.870
30.410
30.490
30.870
31.040
30.400
30.180
29.740
28.870
28.545
28.390
28.785
29.160
29.210
29.870
29.775
29.990
30.075
29.230
28.665
28.235
28.085
28.420
28.665
28.775
29.075
28.600
29.075
28.695
28.670
27.955
26.785
26.700
26.700
26.300
26.050
25.530
25.785
25.665
25.580
25.565
25.075
24.295
24.080
24.140
23.880
23.955
23.480
23.170
23.000
23.405
23.290
22.680
21.960
22.090
21.955
21.990
21.870
21.415
20.755
21.095
20.780
19.865
18.870
18.870
18.870
18.870
18.775
18.380
17.965
17.870
17.835
17.450
17.350
17.575
17.135
16.775
16.870
16.325
16.060
15.870
15.870
15.690
15.605
15.550
15.435
15.065
14.870
14.870
14.600
14.325
13.870
13.700
13.565
13.120
13.380
13.370
12.955
12.955
12.870
12.740
12.330
11.870
11.870
11.750
11.870
11.905
11.870
11.870
11.555
11.245
10.785
10.785
10.775
10.650
10.610
10.665
10.595
10.870
10.450
10.405
9.785
9.870
9.965
10.150
9.870
9.415
9.690
9.500
9.665
9.855
9.650
8.960
9.350
8.870
8.905
9.055
9.240
8.965
8.775
8.785
8.505
8.595
8.555
8.065
7.765
7.865
8.350
8.145
7.915
7.680
7.870
7.835
7.750
7.480
7.090
7.680
7.945
7.320
7.695
7.170
6.775
6.870
6.790
6.690
7.055
6.905
6.785
6.180
6.575
6.265
6.050
5.955
5.990
6.060
5.870
5.870
6.150
5.870
5.870
5.780
5.965
5.870
5.870
5.665
5.870
5.965
5.785
5.570
5.455
5.295
5.560
5.255
5.870
5.595
5.270
5.280
5.350
5.170
5.295
4.960
5.145
5.045
5.185
5.170
5.190
4.605
4.665
4.700
4.835
4.955
4.680
3.815
4.845
5.245
4.800
4.440
4.105
3.735
4.260
4.090
3.805
3.370
3.455
3.600
3.325
3.730
3.490
3.250
3.370
2.870
3.075
3.425
3.050
2.960
2.870
3.060
3.000
2.960
2.870
2.870
2.870
3.000
2.930
2.680
2.870
2.870
3.060
2.780
2.680
2.870
2.870
2.740
2.750
2.780
2.780
2.870
2.655
2.480
2.575
2.535
2.655
2.210
2.090
1.965
2.175
2.040
1.990
2.000
2.000
1.870
1.870
1.740
1.960
2.000
1.870
1.740
1.915
1.870
1.915
1.525
1.740
1.780
1.095
1.530
1.265
0.870
1.290
1.485
1.290
1.370
1.090
0.700
1.155
1.575
0.975
0.975
0.825
0.560
0.900
0.775
0.660
0.390
0.475
0.720
0.590
0.410
0.695
0.660
0.480
0.480
0.380
0.295
0.600
0.455
0.260
0.000
0.395
0.480
0.450
0.000
0.690
0.085
0.290
0.300
0.095
0.480
0.280
0.095
0.290
0.000
0.170
0.000
0.000
0.000
0.275
0.485
0.090
0.000
0.000
0.085
0.000
0.085
0.085
0.000
0.095
0.000
0.205
0.000
0.095
0.085
0.120
0.085
0.000
0.000
0.085
0.000
0.000
0.000
0.085
0.090
0.085
0.085
0.000
0.205
0.000
0.180
0.000
0.000
0.000
0.095
0.000
0.000
0.000
0.095
0.000
0.085
0.000
0.095
0.085
0.000
0.205
0.000
0.000
0.085
0.000
0.000
0.095
0.000
0.000
