I [a.u.]
48.925
50.000
52.415
54.500
57.175
59.140
62.375
64.430
66.265
69.675
73.175
76.195
79.460
82.360
86.480
90.075
93.400
97.295
100.910
104.985
109.165
113.130
117.205
121.595
125.995
129.910
133.620
138.090
142.825
146.195
151.715
156.115
160.175
164.780
169.170
173.850
177.805
181.595
185.750
190.315
193.795
197.400
201.365
204.725
207.975
210.475
214.540
217.870
220.240
223.095
225.635
227.000
230.195
232.285
234.315
235.220
236.755
237.905
239.100
239.915
241.330
241.810
247.590
255.000
255.000
255.000
255.000
255.000
255.000
255.000
255.000
255.000
255.000
255.000
255.000
255.000
255.000
255.000
255.000
255.000
255.000
255.000
255.000
255.000
255.000
255.000
255.000
255.000
255.000
255.000
255.000
255.000
255.000
255.000
255.000
255.000
255.000
255.000
255.000
255.000
255.000
255.000
255.000
255.000
255.000
255.000
255.000
255.000
255.000
255.000
255.000
255.000
255.000
255.000
255.000
255.000
255.000
255.000
255.000
255.000
255.000
255.000
255.000
255.000
255.000
255.000
255.000
255.000
255.000
255.000
255.000
255.000
255.000
255.000
255.000
255.000
255.000
255.000
255.000
255.000
255.000
255.000
255.000
255.000
255.000
255.000
255.000
255.000
255.000
255.000
255.000
255.000
255.000
255.000
255.000
255.000
255.000
255.000
255.000
255.000
255.000
255.000
255.000
255.000
255.000
255.000
255.000
255.000
255.000
255.000
255.000
255.000
255.000
255.000
255.000
255.000
255.000
255.000
255.000
255.000
255.000
255.000
255.000
255.000
255.000
255.000
255.000
255.000
255.000
255.000
255.000
255.000
255.000
255.000
255.000
255.000
255.000
255.000
255.000
255.000
255.000
255.000
255.000
255.000
255.000
255.000
255.000
255.000
255.000
255.000
255.000
255.000
255.000
255.000
255.000
255.000
255.000
255.000
255.000
255.000
255.000
255.000
255.000
255.000
255.000
255.000
255.000
255.000
255.000
255.000
255.000
255.000
255.000
255.000
255.000
255.000
255.000
255.000
255.000
255.000
255.000
255.000
255.000
255.000
255.000
255.000
255.000
255.000
255.000
255.000
255.000
255.000
255.000
255.000
255.000
255.000
255.000
255.000
255.000
255.000
255.000
255.000
255.000
255.000
255.000
255.000
255.000
255.000
255.000
255.000
255.000
255.000
255.000
255.000
255.000
255.000
255.000
255.000
255.000
255.000
255.000
255.000
255.000
255.000
255.000
255.000
255.000
255.000
255.000
255.000
255.000
255.000
255.000
255.000
255.000
255.000
255.000
255.000
255.000
255.000
255.000
255.000
255.000
255.000
255.000
255.000
255.000
255.000
255.000
255.000
255.000
255.000
255.000
255.000
255.000
255.000
255.000
255.000
240.720
236.750
236.880
236.800
237.540
238.255
238.505
238.690
239.100
239.295
240.340
240.665
240.780
241.455
243.465
242.885
248.160
253.830
253.960
255.000
255.000
255.000
255.000
255.000
255.000
255.000
255.000
255.000
255.000
255.000
252.530
250.905
250.255
249.085
242.655
241.380
240.205
238.985
238.830
237.905
237.015
234.865
234.285
230.830
227.490
226.705
225.830
224.575
223.175
221.945
219.950
218.995
217.635
215.260
213.000
210.270
209.220
207.000
205.480
203.465
202.050
200.015
196.715
194.195
191.885
189.920
187.665
185.820
184.170
181.830
179.340
177.270
175.270
173.275
170.690
168.555
166.535
165.000
163.350
162.000
160.195
158.160
155.595
153.580
151.900
149.545
148.850
147.725
146.170
145.815
144.610
143.000
141.445
139.670
138.245
136.905
136.935
136.830
135.780
135.415
134.300
132.525
130.295
129.730
128.315
127.365
127.170
127.970
127.955
127.595
127.000
125.805
123.905
122.905
121.870
121.245
121.635
122.365
122.835
122.920
122.515
121.685
119.900
118.950
117.775
117.195
117.000
118.655
119.760
119.820
119.855
118.350
116.910
115.550
114.000
113.535
113.645
114.130
116.535
117.750
117.910
117.195
116.390
114.000
112.870
111.975
111.425
112.465
114.155
117.600
119.545
118.910
117.750
116.765
114.855
113.545
112.080
111.000
113.775
116.655
119.800
120.645
119.455
117.000
115.630
113.500
111.000
108.790
109.030
111.800
113.910
113.765
114.290
113.000
111.330
109.590
106.635
104.265
102.355
104.760
106.865
110.740
111.855
111.660
109.560
106.995
104.155
101.265
98.090
95.720
95.800
98.100
102.080
103.660
102.335
100.765
97.920
95.220
92.860
89.585
86.730
85.735
88.500
91.425
92.865
92.535
90.195
87.855
85.425
81.725
79.000
76.350
74.835
76.650
79.470
81.325
81.285
78.060
72.805
70.065
68.415
65.920
63.450
62.730
64.815
68.735
71.265
72.140
70.855
69.095
67.450
65.400
63.170
60.090
58.000
57.925
59.000
61.000
61.840
61.165
60.095
58.845
57.090
55.260
53.820
52.225
51.140
52.145
53.430
55.100
55.360
54.735
53.350
52.490
50.000
49.460
48.090
47.305
47.645
49.000
49.765
50.000
50.000
49.845
48.700
46.910
45.510
43.810
43.000
43.285
43.735
44.805
46.360
46.580
46.305
44.910
44.000
42.260
41.480
40.915
40.480
40.335
41.580
42.445
42.925
43.310
43.000
42.195
41.515
40.365
39.420
39.285
38.685
39.030
39.120
40.120
41.010
41.050
40.695
39.905
39.240
38.765
38.690
37.580
38.060
38.175
38.780
39.900
40.035
40.145
40.050
39.375
38.730
37.870
37.580
37.645
37.800
37.935
38.495
39.300
39.275
38.375
38.345
37.420
37.000
36.700
36.270
36.900
37.195
37.295
37.830
37.680
37.390
37.690
37.000
36.585
36.170
35.980
36.640
37.000
36.660
36.765
37.000
37.000
36.920
36.385
35.465
34.290
34.000
34.145
34.000
33.560
33.330
33.000
33.195
33.090
33.000
32.510
32.150
31.375
31.090
31.275
31.000
31.000
30.775
30.635
31.000
30.610
30.415
29.860
29.805
29.340
29.545
29.120
28.605
28.000
28.095
27.805
27.005
26.300
26.000
25.630
25.895
25.095
24.585
24.560
24.270
24.350
24.000
23.510
23.320
22.890
22.945
22.495
22.340
21.315
21.095
21.000
20.980
20.855
20.545
20.165
19.805
19.540
19.540
19.220
18.375
18.000
17.910
18.000
17.805
18.000
18.000
17.755
17.835
17.275
17.090
17.090
16.530
16.435
16.325
16.100
16.385
16.230
15.870
15.210
15.165
15.195
15.000
14.925
14.775
14.910
14.595
14.910
14.855
14.705
14.100
14.000
13.390
13.660
13.990
13.745
13.560
13.090
13.145
13.165
13.245
13.175
12.830
12.610
12.190
12.570
12.485
12.380
12.175
12.100
12.190
12.010
12.000
11.780
11.780
11.670
11.415
11.555
11.810
11.335
11.185
11.000
10.910
10.570
10.750
10.935
11.000
10.725
10.635
10.810
10.365
10.080
10.190
10.000
10.000
10.130
10.140
10.000
9.790
9.580
9.595
9.400
9.235
9.235
9.180
9.320
9.450
9.000
9.000
9.000
9.000
9.000
8.700
9.000
8.715
8.920
9.000
8.765
8.250
8.670
8.190
8.000
8.320
8.360
8.095
8.440
8.000
7.945
7.730
7.445
7.595
7.835
7.735
7.690
7.650
7.470
7.060
7.270
7.175
7.325
7.300
7.420
6.920
6.920
7.210
7.080
6.910
6.615
6.555
6.590
6.910
6.285
6.180
6.310
6.335
5.920
6.195
6.020
6.065
5.625
5.555
5.415
5.320
5.570
5.325
5.220
5.695
5.400
5.190
5.195
5.090
5.235
5.170
5.000
5.165
4.830
4.910
5.000
5.000
5.000
5.000
4.825
4.910
4.450
4.475
5.000
4.530
4.315
4.605
4.285
4.030
4.080
4.010
3.830
3.910
3.705
3.720
3.340
3.545
3.190
2.915
2.685
2.835
2.365
2.180
2.000
2.080
2.130
2.165
2.000
2.000
2.000
2.000
2.000
2.000
2.000
2.000
2.000
2.000
1.810
2.000
1.820
1.685
1.905
2.000
1.820
1.600
1.350
1.285
1.400
1.075
1.235
1.235
1.145
1.090
1.285
1.000
1.000
0.905
0.925
0.900
1.000
1.000
1.000
0.730
0.905
0.720
1.000
1.000
0.465
0.615
0.485
0.610
0.415
0.665
0.415
0.415
0.540
0.430
0.320
0.310
0.300
0.295
0.145
0.075
0.290
0.000
0.000
0.145
0.000
0.000
0.100
0.000
0.080
0.000
0.195
0.000
0.000
0.145
0.145
0.000
0.100
0.000
0.000
0.100
0.000
0.000
0.090
0.000
0.000
0.000
0.000
0.000
0.000
0.000
0.000
0.100
0.000
0.000
0.275
0.000
0.000
0.000
0.000
0.000
0.000
0.000
0.000
0.000
0.090
0.000
0.100
0.000
0.000
0.000
0.000
0.090
0.095
0.000
0.000
