I [a.u.]
3.715
3.430
3.750
4.000
3.950
3.880
4.000
4.170
4.550
4.690
4.800
4.910
5.000
5.000
5.000
5.175
5.200
6.000
6.365
6.820
6.915
7.380
7.700
8.000
8.000
8.150
8.420
9.170
9.370
9.830
10.355
10.800
11.435
11.970
11.830
12.235
13.080
13.305
13.585
13.830
13.725
14.530
14.970
15.260
15.460
15.795
15.935
16.530
17.030
17.000
17.030
17.330
17.460
18.000
17.940
17.925
17.965
18.000
17.800
18.000
17.910
18.000
17.915
17.795
17.725
18.000
17.735
17.825
18.170
17.825
17.620
17.890
17.910
17.595
17.515
17.235
17.030
17.430
17.555
17.140
17.135
16.970
17.195
17.110
17.025
17.605
17.600
17.875
18.000
18.085
18.485
19.235
19.580
20.000
20.170
20.705
21.000
21.265
21.520
21.990
22.250
23.445
24.000
24.170
24.090
24.985
25.630
26.265
26.590
27.000
27.170
27.910
28.210
28.655
29.145
28.910
28.600
29.030
29.910
29.915
30.225
30.690
30.965
31.585
32.120
32.385
33.035
33.000
33.330
33.620
33.420
34.000
34.000
33.965
34.000
34.125
34.175
34.320
34.115
34.090
34.000
34.000
34.000
34.000
34.000
34.000
34.000
33.155
32.940
33.060
32.845
32.490
32.110
32.065
31.930
31.515
31.090
31.000
30.580
30.580
30.680
29.695
29.765
29.405
29.255
29.055
28.865
28.655
28.565
28.720
27.860
27.825
27.800
27.430
27.490
27.715
26.985
26.850
26.795
26.835
26.550
26.400
26.430
26.345
25.880
26.225
26.175
26.295
26.085
26.385
26.495
26.210
26.670
26.615
26.605
26.635
26.735
27.320
27.055
27.140
27.295
27.635
27.385
27.595
27.570
28.035
28.415
28.275
28.465
28.415
28.810
28.865
29.105
29.135
29.310
29.245
29.740
29.880
30.020
29.985
30.500
30.395
30.410
30.650
31.000
31.090
31.120
30.840
30.970
31.305
31.095
31.315
31.270
31.270
31.460
30.915
30.995
31.065
30.770
31.000
31.005
30.200
30.385
30.435
29.800
29.840
29.460
29.110
29.175
28.865
28.885
28.665
28.250
28.055
28.435
28.090
27.555
27.385
27.060
26.880
26.660
26.385
25.965
25.710
25.640
25.195
25.170
24.465
24.000
24.030
24.000
23.880
23.830
23.380
22.535
23.110
22.345
21.575
21.810
21.310
21.000
21.000
21.000
21.000
21.000
20.655
20.795
20.655
20.215
20.455
20.410
20.030
19.970
20.035
20.035
20.205
19.800
19.180
19.545
19.275
19.335
19.310
19.065
18.995
18.885
19.120
18.725
18.715
18.400
18.420
18.260
18.340
18.105
18.255
18.085
18.000
17.920
17.935
17.440
17.455
17.180
16.680
16.805
16.210
15.885
15.735
15.430
14.740
14.435
13.710
13.175
12.755
12.050
11.090
10.490
10.000
8.820
8.000
7.910
7.000
5.700
5.000
4.915
4.300
3.985
3.305
2.985
2.655
2.305
2.000
1.695
1.665
1.895
1.755
1.255
1.230
1.235
1.205
1.195
1.310
1.175
0.910
0.980
1.455
1.310
1.220
0.925
1.315
1.160
1.090
0.995
0.745
1.015
0.900
1.000
0.845
1.360
1.150
0.785
0.795
1.470
1.120
0.835
0.860
1.020
1.260
0.825
1.030
1.350
1.235
1.120
0.855
0.845
1.345
1.240
0.970
1.060
1.170
1.535
1.265
1.180
1.875
1.490
1.265
1.490
1.580
1.555
1.970
1.520
1.830
1.910
1.885
1.965
1.970
1.865
1.895
1.830
2.000
2.170
2.000
1.830
2.000
2.000
2.000
2.000
2.120
2.000
2.205
2.165
2.085
2.370
2.325
2.340
2.170
2.465
2.145
2.380
2.520
2.295
2.285
2.385
2.445
2.670
2.805
2.465
2.030
2.445
2.410
2.570
2.580
2.675
2.605
2.410
2.660
2.345
2.435
2.555
2.565
2.310
2.475
2.155
2.665
2.385
2.170
2.115
2.115
2.115
2.690
2.600
2.210
2.325
2.200
2.225
2.295
2.285
2.510
2.240
2.315
2.000
2.090
2.610
2.650
2.460
2.310
2.345
2.170
2.315
2.825
2.400
2.470
2.660
2.660
2.220
2.460
2.780
2.685
2.575
3.025
2.620
2.565
2.900
2.695
2.675
2.915
2.625
2.560
2.750
3.210
3.345
3.145
3.120
2.625
2.765
2.900
2.825
3.000
2.475
3.135
3.205
2.940
2.855
3.510
3.060
3.340
2.765
2.890
3.365
3.225
2.960
2.445
2.920
3.475
3.550
2.795
3.050
2.765
2.955
3.000
3.160
3.225
3.000
3.170
3.035
3.030
2.960
3.145
3.110
2.980
3.140
3.055
2.865
3.165
2.680
2.925
2.890
2.725
2.780
3.105
2.790
2.970
2.660
2.665
2.545
2.915
2.825
2.595
2.635
2.265
2.545
3.000
3.060
2.370
3.140
2.555
2.665
2.590
3.045
2.655
2.705
2.520
2.500
2.785
2.925
2.545
2.540
2.625
2.535
2.735
2.720
2.770
2.680
2.775
2.900
2.710
2.460
2.930
3.055
2.805
2.755
2.455
2.630
2.685
2.835
2.485
2.635
2.655
2.810
2.760
2.675
2.405
2.595
2.765
2.760
3.340
2.825
2.570
3.130
3.015
3.150
3.255
2.870
3.035
3.300
3.080
2.915
3.165
3.340
3.030
3.390
2.880
3.445
3.425
2.955
3.000
3.295
3.050
3.630
3.855
3.125
3.120
3.345
3.385
3.365
3.590
3.420
3.335
3.575
3.585
3.570
3.325
3.450
3.845
3.880
3.460
3.915
3.755
3.370
3.745
3.755
3.545
3.830
3.825
3.600
3.700
3.910
3.820
3.835
3.825
3.570
3.345
3.670
3.910
3.920
3.825
3.760
3.585
3.685
4.000
3.705
3.935
3.965
3.785
3.910
3.750
3.310
3.660
3.460
3.565
3.560
3.715
3.715
3.590
3.485
3.105
3.230
3.500
3.435
3.415
3.240
3.090
3.310
3.310
2.915
3.255
3.205
3.295
3.295
3.175
2.630
3.075
3.295
3.090
3.540
2.790
2.505
2.940
3.170
2.965
2.785
2.570
2.895
2.840
2.960
2.950
2.705
2.210
2.530
2.710
2.785
2.650
2.805
2.625
2.285
2.585
2.605
2.335
2.625
2.195
2.200
2.435
2.515
2.165
2.380
2.000
2.250
2.200
2.205
2.170
2.090
2.000
2.110
2.035
2.115
2.120
2.310
2.165
2.110
2.000
2.000
2.075
2.035
2.075
2.285
2.000
2.090
2.000
2.230
2.120
2.035
2.000
2.000
2.125
2.000
2.035
2.115
2.250
2.000
2.035
2.000
1.825
1.825
2.070
2.175
1.945
1.910
2.000
2.000
2.290
2.000
2.000
2.125
2.165
2.035
2.140
2.115
1.795
2.000
2.055
2.000
2.110
1.920
1.965
2.115
2.075
1.890
1.890
1.915
2.195
1.920
2.000
1.825
1.915
2.120
2.120
2.005
2.190
2.000
1.915
1.885
2.150
2.000
1.885
1.960
1.925
1.750
2.000
2.075
1.925
1.965
2.075
2.000
2.075
2.000
2.000
2.000
1.800
2.000
2.000
1.795
2.000
2.000
2.000
2.000
2.000
1.970
2.000
1.925
2.000
2.000
2.030
1.970
2.000
1.925
1.825
2.000
2.000
2.000
2.000
1.915
2.000
2.000
1.825
1.750
1.885
2.000
2.085
1.915
1.970
1.885
1.825
2.085
1.915
1.935
1.795
1.795
2.000
2.000
2.000
2.145
1.795
1.825
1.860
2.000
1.965
1.970
1.745
1.885
1.740
1.810
1.910
1.765
1.655
2.000
2.000
1.885
1.885
1.915
1.765
2.000
1.740
2.000
1.885
1.780
1.620
1.635
2.000
1.720
1.395
1.745
1.525
1.790
2.000
1.765
1.475
1.370
1.840
1.880
1.580
1.690
1.680
1.670
1.490
2.000
1.630
1.280
1.460
1.500
1.740
1.590
1.135
1.515
1.365
1.690
1.745
1.570
1.275
1.260
1.545
1.570
1.670
1.580
1.450
1.395
1.280
1.455
1.300
1.485
1.430
1.085
1.095
1.240
1.165
1.370
1.280
0.960
0.925
1.250
0.830
1.540
1.065
0.880
1.100
1.195
1.140
0.855
1.140
1.265
0.970
1.175
1.320
1.030
1.240
1.255
1.070
1.265
1.030
1.095
1.090
1.000
1.105
0.855
1.030
0.880
0.565
1.265
0.880
0.955
0.775
0.870
1.080
0.910
0.880
0.920
0.565
0.965
0.950
1.140
1.170
0.995
0.865
1.000
0.765
0.885
0.755
0.940
0.970
1.000
0.650
0.630
0.830
0.880
1.000
0.910
0.735
1.000
0.715
1.000
1.000
0.735
0.700
1.000
0.830
0.720
0.775
