I [a.u.]
4.650
4.530
4.550
4.670
4.735
5.000
5.000
5.000
5.000
5.165
5.565
6.515
7.000
6.890
7.675
7.955
8.045
7.880
8.320
8.360
9.540
10.020
10.420
10.775
11.415
11.910
12.415
12.805
13.120
13.915
14.475
14.995
15.800
16.295
17.065
17.550
17.925
18.335
18.975
19.590
20.420
20.680
21.000
21.260
21.690
21.910
22.860
23.550
24.045
24.245
24.320
24.870
24.960
25.690
25.570
25.615
26.350
26.045
26.245
26.465
26.085
26.005
26.280
25.970
25.740
25.915
26.085
26.400
26.210
26.090
25.990
26.005
26.060
26.425
25.915
25.825
25.755
26.045
26.005
25.800
25.600
25.885
26.105
25.805
25.880
26.155
26.130
26.800
27.080
27.775
28.430
29.170
30.140
31.000
31.490
32.925
33.480
33.800
34.205
35.325
36.030
36.800
37.265
37.330
39.195
39.390
39.885
40.565
41.455
42.115
43.150
43.840
44.995
45.590
45.660
45.490
45.800
46.680
47.255
48.155
49.125
50.005
50.520
50.995
51.765
52.460
52.810
53.080
53.420
54.045
54.740
54.815
55.390
55.650
55.915
56.010
55.965
56.130
56.080
56.265
56.460
56.120
56.270
56.520
55.995
56.010
55.960
55.340
54.700
53.760
54.530
53.420
53.090
53.090
52.880
52.810
52.690
52.015
51.680
51.605
51.010
50.670
50.125
50.080
49.755
49.355
49.405
48.660
48.125
48.310
47.375
47.135
47.145
47.045
46.810
46.455
45.885
45.760
45.855
45.600
45.115
44.720
44.460
44.725
44.735
44.855
44.915
44.875
45.380
45.210
45.520
45.770
45.925
45.800
46.000
45.960
46.000
46.340
46.435
46.530
46.915
46.925
47.330
47.810
47.970
48.220
48.460
48.800
49.390
49.335
50.000
50.000
50.265
50.330
50.605
50.710
51.415
52.000
51.805
52.330
52.255
52.670
52.885
53.045
53.175
53.340
53.945
53.350
53.475
54.395
53.910
53.830
54.680
53.740
54.480
54.210
54.305
54.060
53.490
53.090
53.350
53.330
53.000
52.840
52.800
52.125
52.045
51.915
51.520
50.900
50.260
50.365
50.080
49.840
49.885
49.125
48.875
48.765
48.125
47.340
47.080
46.595
46.245
45.830
45.165
44.860
44.810
44.200
43.700
43.445
42.870
42.470
42.215
41.615
41.425
40.710
40.390
40.000
39.935
39.720
39.165
38.385
37.675
37.740
37.160
37.000
36.880
36.795
36.285
36.635
36.000
36.210
35.960
35.395
35.295
35.230
35.290
35.000
34.495
34.670
34.335
34.250
34.275
34.520
34.120
34.000
34.200
34.000
34.080
34.000
33.880
34.125
34.080
33.610
33.535
34.000
33.995
33.180
33.645
33.465
33.210
32.830
32.880
32.430
32.215
31.665
31.615
31.045
30.760
30.635
29.935
28.840
28.675
28.045
27.130
26.665
25.665
24.205
23.885
22.390
21.000
20.315
19.585
18.075
17.165
15.970
14.400
13.235
12.285
11.540
10.000
8.900
8.000
7.200
6.360
5.000
5.000
4.920
4.195
4.000
3.355
2.920
2.810
2.595
2.345
2.000
2.000
2.000
2.000
2.000
2.000
1.955
2.000
2.000
2.000
2.000
2.000
2.000
2.000
2.000
2.000
2.000
2.120
2.000
2.080
2.000
2.395
2.255
2.210
2.670
3.000
2.680
3.250
3.440
3.460
3.960
3.705
4.000
4.485
4.760
4.380
4.680
4.655
5.000
5.000
4.795
5.400
5.000
5.355
5.400
5.650
5.945
5.895
6.710
6.400
6.630
6.900
7.205
7.485
7.395
7.595
7.570
7.665
7.720
8.000
8.000
8.085
8.000
8.085
8.165
8.240
8.450
8.730
8.420
8.645
8.790
8.485
9.000
8.795
8.655
8.885
9.010
8.910
8.835
9.220
8.995
9.035
9.155
9.105
8.845
8.940
9.075
9.030
8.815
9.075
9.000
8.980
8.725
9.230
8.950
8.760
8.905
9.025
9.000
9.075
8.835
8.865
8.870
8.885
9.160
9.365
9.000
8.920
9.000
9.250
8.920
9.080
9.075
9.045
9.000
9.060
9.075
9.265
9.045
8.880
8.990
9.085
9.075
9.000
9.160
8.990
9.000
9.075
9.075
9.195
9.265
9.250
9.120
9.430
9.215
9.240
9.000
9.465
9.585
9.275
9.330
9.400
9.160
9.675
9.040
9.250
9.680
9.115
9.270
9.390
9.335
9.205
9.205
8.880
9.535
9.470
9.120
9.160
9.420
8.755
8.965
8.955
9.040
8.950
8.865
8.750
8.635
8.755
8.865
8.705
8.075
8.000
8.000
8.130
8.085
7.870
8.115
8.000
8.000
8.080
8.075
8.115
8.000
8.080
7.925
7.920
7.870
7.605
8.000
7.455
7.600
7.835
7.635
7.485
7.680
7.590
7.155
7.545
7.645
7.275
7.390
7.080
7.150
7.120
6.780
7.075
7.330
7.395
7.050
6.890
6.910
6.705
7.035
6.765
6.875
6.590
6.765
6.885
7.080
6.785
6.720
6.445
6.785
6.550
6.910
6.835
6.700
6.830
6.185
6.830
6.375
6.880
6.675
6.755
6.715
6.525
6.835
6.140
6.850
6.715
6.250
6.610
6.545
7.045
6.650
6.175
6.915
6.955
6.645
7.120
7.045
7.000
7.045
6.340
6.725
6.915
7.045
6.695
6.770
6.820
7.085
7.200
6.885
7.045
7.000
7.215
7.320
7.045
7.050
6.885
7.130
6.870
7.000
7.160
7.245
6.915
7.280
7.160
7.265
7.320
7.245
7.495
7.420
7.340
7.340
7.410
7.800
7.490
7.400
7.335
7.430
7.555
7.395
7.535
7.370
7.545
7.520
7.665
7.545
7.540
7.340
7.490
7.450
7.395
7.380
7.460
7.270
7.395
7.340
7.250
7.380
7.310
7.165
7.085
7.440
7.410
7.130
7.085
7.265
6.995
6.915
7.005
7.120
6.915
6.920
6.925
6.955
6.485
6.450
6.715
6.415
6.750
6.060
5.820
5.655
6.725
5.785
5.890
5.285
5.330
5.310
5.000
5.350
5.350
5.175
5.000
5.000
5.000
5.000
5.000
5.000
5.000
5.000
5.000
5.000
5.000
5.000
5.000
4.880
5.000
5.000
4.920
5.000
4.885
4.880
5.000
4.730
4.885
4.835
4.870
5.000
4.700
4.645
4.375
4.405
4.885
4.200
4.595
4.345
4.155
4.085
4.470
4.265
4.045
4.265
4.075
4.000
4.000
4.000
4.000
4.075
4.000
4.265
4.000
3.660
4.000
4.000
3.825
4.000
3.735
3.500
3.845
3.735
4.115
3.590
3.840
3.450
3.955
3.830
3.585
3.885
3.605
3.735
3.525
3.795
3.395
3.635
3.765
3.845
3.360
3.390
3.285
3.515
3.555
3.280
3.205
3.600
3.380
3.125
3.030
3.715
3.360
3.075
3.245
3.215
3.450
3.390
3.335
3.365
3.210
2.900
2.885
3.200
3.235
3.505
3.045
2.885
3.165
3.165
3.165
3.340
3.170
3.190
3.165
3.290
3.045
3.000
3.235
3.420
3.115
3.235
2.915
2.890
3.300
3.340
3.425
3.190
2.660
2.965
2.885
2.930
3.385
3.245
2.955
3.005
2.930
3.060
3.030
3.190
3.030
3.030
2.720
2.565
3.030
2.895
2.945
3.230
3.015
2.990
2.650
2.885
3.075
2.800
3.000
3.000
2.930
3.055
2.675
2.870
2.795
2.660
2.645
2.915
2.655
2.460
2.785
2.880
2.455
2.740
2.725
2.540
2.590
3.000
2.650
2.450
2.675
2.680
2.585
2.550
2.270
2.440
2.915
2.595
2.520
2.705
2.355
2.395
2.770
2.595
2.640
2.385
2.310
2.545
2.395
2.455
2.000
2.045
2.235
2.130
2.130
2.160
2.125
2.115
2.380
2.345
2.130
2.045
2.045
2.000
2.000
2.000
2.000
2.075
2.000
2.000
2.000
2.000
2.000
2.045
1.925
2.000
2.000
2.000
2.000
2.000
2.000
2.000
2.000
2.000
1.925
2.000
2.000
2.075
2.000
1.880
2.000
1.920
2.000
2.075
2.000
1.720
2.000
2.000
1.925
1.915
1.925
1.795
1.735
1.955
2.000
2.000
1.725
1.810
1.620
1.390
1.750
1.760
1.415
1.720
1.485
1.285
1.530
1.870
1.555
1.720
1.320
1.295
1.515
1.690
1.665
1.215
1.395
1.460
1.550
1.095
1.585
1.475
1.495
1.035
1.270
1.340
1.435
1.340
1.265
1.625
1.320
1.155
1.165
1.395
1.075
1.035
1.000
1.440
1.350
0.955
0.615
1.045
1.045
0.955
0.780
1.045
1.245
0.880
1.110
1.250
1.310
0.870
0.895
0.735
1.085
1.255
1.035
1.000
0.500
1.100
1.165
1.205
1.080
0.800
