I [a.u.]
6.000
5.845
6.960
6.885
7.085
6.870
7.130
7.465
7.465
7.370
7.830
7.915
8.085
8.170
8.250
8.000
8.000
8.130
8.470
8.580
8.460
9.380
9.490
9.215
9.295
9.760
9.540
10.205
10.500
10.545
10.670
10.870
11.165
11.620
11.915
11.760
11.830
12.585
12.830
13.160
13.255
13.510
14.215
14.540
15.000
15.535
16.460
17.460
17.840
18.085
19.140
20.000
20.830
21.415
23.350
23.915
24.910
26.380
26.915
28.240
29.255
30.290
31.085
31.795
32.415
33.410
34.290
34.835
35.165
36.050
36.000
36.615
37.000
37.685
38.425
39.005
38.905
39.750
40.045
40.295
40.250
40.840
41.160
41.630
42.460
42.840
42.880
43.495
43.580
44.080
44.830
45.380
45.960
46.160
47.085
47.470
48.290
49.540
50.080
50.380
51.090
52.085
53.000
53.730
55.215
56.085
56.640
58.120
59.285
59.755
60.745
61.750
63.040
64.255
64.410
64.580
65.125
65.915
66.165
67.760
68.290
69.000
69.425
71.300
72.835
73.370
74.385
74.535
75.415
76.170
76.595
77.460
77.460
78.050
78.635
78.705
79.090
79.125
79.540
79.380
79.460
79.840
79.835
79.675
79.620
79.760
79.595
79.250
78.920
78.385
78.295
77.630
77.745
77.295
77.215
76.885
76.375
76.090
75.755
75.285
75.085
74.005
73.705
73.380
72.215
72.170
72.000
71.555
71.250
71.010
70.180
69.715
69.000
69.000
68.835
68.785
68.000
68.000
68.000
67.930
67.090
66.500
66.170
66.465
67.130
66.295
66.245
66.410
67.000
67.455
67.915
67.995
67.920
68.000
68.085
68.295
68.505
68.840
68.920
69.500
69.170
69.590
70.510
71.130
71.415
71.545
72.000
72.370
72.995
73.380
74.000
74.260
75.045
75.130
75.325
76.245
76.210
76.375
77.005
77.380
77.580
78.245
78.465
78.500
78.755
78.885
78.955
79.330
79.340
79.170
79.365
79.125
79.160
79.005
78.840
78.670
78.245
77.785
77.705
77.470
77.170
76.580
76.165
75.835
75.250
74.545
73.590
73.080
72.575
72.000
71.465
70.630
69.850
69.000
68.915
68.050
67.385
66.800
66.000
65.750
64.590
63.835
63.080
62.670
61.970
61.415
60.830
60.000
59.170
58.875
57.835
57.620
56.585
56.000
55.375
55.000
53.500
53.260
52.790
52.460
52.085
51.535
50.735
50.130
50.080
49.870
49.245
48.870
48.505
48.000
47.745
47.170
46.925
46.830
46.500
46.080
46.285
45.790
45.540
45.455
45.255
44.700
44.705
44.835
44.425
44.580
44.550
44.250
44.165
44.000
43.915
44.120
44.205
44.080
43.785
43.755
43.915
43.830
43.875
43.920
44.170
43.620
43.745
44.005
44.255
43.790
44.010
43.700
43.670
43.915
43.785
43.830
43.830
43.920
43.615
43.830
44.045
43.755
43.920
43.500
43.420
43.445
43.495
43.300
43.005
43.000
43.130
42.620
41.960
41.625
41.620
41.335
41.165
40.670
40.755
40.075
40.170
39.745
39.505
39.200
38.655
37.670
37.000
37.000
36.675
36.495
35.530
35.215
34.545
34.285
34.295
34.170
33.745
33.325
32.205
31.755
31.380
31.120
30.575
29.785
29.285
28.835
28.510
28.000
27.745
26.540
25.885
25.745
25.165
25.080
24.080
23.840
23.340
22.905
22.290
21.320
21.245
20.760
20.750
20.410
20.080
19.490
19.245
18.870
18.510
18.245
18.000
17.660
17.240
16.920
16.965
16.695
15.750
16.075
15.130
15.210
15.075
14.870
14.260
13.880
13.535
13.380
13.500
13.030
12.920
12.920
12.915
12.675
12.215
12.085
11.700
11.915
11.250
11.165
11.200
10.925
10.460
10.545
10.375
10.000
10.000
10.000
9.745
9.545
9.540
9.035
8.915
8.785
8.710
8.665
8.300
8.380
8.255
8.415
8.210
8.085
7.875
7.955
7.700
7.835
7.915
7.750
7.290
7.330
7.415
7.490
7.435
7.755
7.290
6.900
7.005
7.335
6.660
6.915
6.665
6.995
6.750
7.000
6.755
5.995
6.200
6.090
5.830
5.920
6.260
6.085
5.485
5.160
5.330
5.080
5.255
5.925
5.490
5.160
5.085
5.160
5.085
5.085
5.125
5.160
5.245
5.320
5.170
5.000
5.000
5.000
5.000
5.000
5.085
5.000
5.000
5.000
4.915
4.625
5.000
5.000
4.830
4.915
4.675
4.870
4.575
4.465
4.790
4.470
4.425
4.410
4.660
4.670
3.965
4.295
4.040
4.375
4.300
4.380
4.210
4.380
4.125
4.000
3.870
4.255
3.970
4.130
3.705
4.080
4.295
4.045
4.025
3.785
4.165
4.085
3.915
3.870
4.000
3.920
3.745
3.705
3.785
3.920
3.915
3.835
3.915
3.790
3.375
3.835
3.915
3.660
3.580
3.790
3.830
3.670
3.835
3.625
3.460
3.470
3.165
3.450
3.785
3.370
3.575
3.665
3.165
3.170
3.750
3.830
3.380
3.285
3.210
3.460
3.665
3.195
3.370
3.660
3.115
3.385
3.755
3.665
3.325
3.085
3.085
3.085
3.710
3.285
3.370
3.300
3.490
3.300
3.305
3.165
3.190
3.280
3.450
3.170
3.340
3.250
3.450
3.195
3.445
3.370
3.090
3.455
3.280
3.050
3.500
3.095
3.595
3.445
3.160
3.255
3.160
3.095
3.120
3.575
3.545
3.035
2.920
3.255
3.295
3.705
3.045
3.290
3.415
3.045
3.165
3.620
3.290
3.085
2.830
3.250
2.920
3.670
3.535
2.785
2.840
3.755
3.290
3.870
3.545
2.925
2.580
3.285
2.960
3.320
3.305
3.330
2.870
2.870
3.165
2.585
3.085
3.215
3.670
2.955
2.700
2.840
3.080
3.325
3.420
2.745
3.155
2.995
3.035
3.340
3.010
3.080
2.915
2.660
3.210
2.965
2.870
2.830
2.840
3.620
3.295
3.040
2.780
2.540
3.010
3.380
3.090
2.915
2.820
2.540
2.425
2.995
2.920
3.005
3.155
2.335
2.300
2.925
2.845
2.790
2.705
2.620
2.715
2.710
2.920
2.340
2.750
2.585
2.245
2.210
2.750
2.460
2.755
2.550
2.490
2.450
2.750
2.415
2.530
2.910
2.170
2.250
2.335
2.240
2.365
2.365
2.375
2.165
2.335
2.165
2.000
2.370
2.375
2.165
2.240
2.375
2.370
2.375
2.085
2.160
2.445
2.205
2.380
2.000
2.085
2.575
2.450
2.170
2.255
2.255
2.125
2.450
2.495
2.170
2.000
2.255
2.000
2.485
2.165
2.410
2.245
2.610
2.170
2.410
2.525
2.170
2.375
2.170
2.170
2.325
2.250
2.380
2.425
2.045
2.000
2.085
2.165
2.085
2.085
2.165
2.245
2.125
2.170
2.085
2.165
2.000
2.000
2.000
2.000
2.000
2.255
2.125
2.000
2.000
2.000
2.080
2.205
2.415
2.000
2.085
2.130
2.165
2.255
2.085
2.000
2.210
2.085
2.165
2.170
2.175
2.000
2.450
2.165
2.210
2.000
2.130
2.085
2.085
2.085
2.165
2.165
2.250
2.210
2.215
2.295
2.085
2.000
2.215
2.300
2.330
2.000
2.160
2.130
2.300
2.245
2.250
2.255
2.130
2.215
2.160
2.165
2.335
2.295
2.370
2.375
2.285
2.130
2.505
2.165
2.655
2.450
2.340
2.245
2.245
2.165
2.125
2.205
2.125
2.085
2.375
2.160
2.125
2.240
2.295
2.085
2.630
2.535
2.210
2.335
2.165
2.300
2.335
2.825
2.250
2.085
2.085
2.085
2.540
2.460
2.080
2.255
2.340
2.295
2.375
2.080
2.085
2.170
2.415
2.255
2.415
2.240
2.165
2.000
2.245
2.080
2.495
2.330
2.210
2.170
2.170
2.170
2.330
2.330
2.085
2.085
2.085
2.245
2.170
2.240
2.170
2.165
2.085
2.240
2.080
2.240
2.000
2.000
2.000
2.410
2.085
2.160
1.915
2.000
2.170
2.170
2.170
2.160
2.000
2.000
2.000
2.000
2.085
2.160
2.000
2.000
2.000
2.170
2.085
2.000
2.000
2.000
2.000
2.000
1.870
2.000
2.000
2.000
2.000
1.870
1.830
2.130
1.915
2.000
1.870
2.000
1.840
2.000
2.000
2.085
2.160
2.000
1.840
2.000
2.000
2.085
2.080
2.000
2.000
2.000
2.000
2.085
1.920
1.830
2.240
1.630
1.920
1.870
1.920
1.915
2.000
2.000
2.000
2.000
1.840
2.000
2.000
2.000
1.840
2.000
1.840
2.000
2.000
2.000
1.835
2.000
1.835
2.000
1.915
1.920
1.835
1.620
1.835
1.705
2.000
1.920
1.835
1.790
1.785
1.755
2.000
1.960
1.835
