I [a.u.]
10.130
10.458
10.830
11.136
11.450
11.872
12.064
12.304
12.652
13.152
13.502
13.942
13.998
14.124
14.646
14.906
15.160
15.636
15.938
16.180
16.614
16.930
17.114
17.656
18.014
18.306
18.550
19.200
19.838
20.026
20.490
21.006
21.386
21.986
22.450
23.000
23.230
24.180
25.246
26.000
26.708
27.926
29.028
30.226
31.470
33.070
35.044
36.732
38.932
41.518
43.466
45.854
48.066
50.394
52.196
54.198
56.100
57.776
59.084
60.818
62.140
63.514
64.980
66.152
67.678
68.356
69.842
70.876
71.224
72.916
73.706
74.246
75.256
76.214
76.940
77.576
78.266
78.700
79.340
80.134
80.652
81.164
82.140
83.004
83.800
84.386
85.366
86.272
86.990
88.054
89.574
90.626
92.092
93.728
95.066
96.484
98.008
99.870
101.344
102.898
105.032
106.704
108.940
110.714
112.640
114.564
116.156
117.902
119.100
121.670
123.422
125.760
127.172
128.926
130.054
130.198
131.270
132.186
133.992
134.912
136.532
138.012
138.464
141.076
143.982
145.190
146.054
146.914
147.708
148.164
148.714
149.862
150.320
150.570
150.850
150.906
151.028
150.946
150.944
150.830
150.882
150.938
150.578
150.478
150.096
149.778
149.106
148.138
147.590
146.966
146.462
145.324
144.570
143.546
142.892
142.316
141.834
140.508
139.680
138.488
137.926
137.148
136.046
134.974
134.748
134.028
133.422
132.588
131.912
131.662
131.086
130.302
129.834
129.266
129.256
128.462
127.810
127.722
127.610
127.394
126.764
125.990
125.966
125.958
126.318
126.560
126.670
126.796
127.584
128.826
129.220
129.660
130.062
130.634
131.298
131.814
132.040
132.890
133.614
134.418
134.916
135.550
136.724
137.730
138.504
139.678
140.628
141.716
142.452
143.390
144.352
145.162
146.056
146.888
147.616
148.184
148.866
149.788
150.456
150.950
151.250
152.534
153.394
153.812
154.196
154.454
154.612
154.810
155.190
155.358
155.348
155.216
155.094
154.760
154.482
154.086
153.992
153.260
152.908
151.848
151.034
150.836
150.166
149.340
148.194
147.710
146.696
145.600
144.682
143.498
142.604
141.650
140.792
139.488
138.268
137.436
136.292
134.972
134.492
133.224
132.308
131.410
130.240
129.020
128.202
127.174
126.132
125.358
124.260
123.050
122.084
121.362
120.150
119.000
118.546
117.516
116.582
115.984
115.404
114.522
113.740
112.976
112.378
111.640
111.032
110.722
110.114
109.810
109.168
108.786
108.400
108.174
107.854
107.486
107.210
106.856
106.862
106.614
106.684
106.482
106.434
106.270
106.324
106.428
106.700
106.694
106.924
106.964
106.996
107.322
107.494
107.810
107.940
108.134
108.478
108.768
109.202
109.356
109.910
109.966
110.104
110.552
110.850
111.042
111.290
111.784
111.896
112.274
112.758
113.046
113.340
113.482
113.954
114.170
114.266
114.756
114.882
115.138
115.150
115.194
115.318
115.486
115.532
115.408
115.148
115.024
114.790
114.686
114.440
114.082
113.840
113.486
113.110
112.974
112.538
112.116
111.682
110.934
110.368
109.938
109.330
108.358
106.544
105.818
104.812
103.370
102.994
102.386
101.706
101.250
101.198
100.070
99.552
98.604
97.576
96.606
95.720
94.766
93.866
92.982
91.818
90.814
89.756
88.792
87.066
86.772
85.976
84.846
84.026
83.136
82.140
81.328
80.414
79.580
78.766
77.844
76.858
76.032
74.996
74.138
73.850
72.996
71.890
71.028
70.960
70.340
69.888
69.094
68.466
68.014
67.902
67.394
66.922
66.620
65.980
65.374
64.992
64.748
64.298
63.946
63.542
63.158
62.878
62.614
62.402
62.038
61.846
61.670
61.278
61.046
60.980
60.802
60.576
60.462
60.020
59.846
59.826
59.644
59.442
59.334
59.194
59.034
58.872
58.708
58.656
58.360
58.208
58.300
58.198
58.216
58.136
58.134
58.060
58.042
58.058
58.020
58.034
58.046
58.054
58.042
58.078
58.116
58.140
58.218
58.148
58.246
58.698
58.758
58.988
59.274
59.194
59.246
59.316
59.472
59.672
59.866
59.870
59.696
59.596
59.600
59.648
59.636
59.682
59.284
59.104
58.758
58.888
58.720
58.148
58.018
57.884
57.460
57.426
57.550
57.212
57.064
57.256
57.052
56.868
56.576
55.704
55.146
55.000
54.988
54.756
54.382
54.122
53.852
53.224
52.766
52.268
52.050
51.678
51.332
51.194
50.646
49.936
49.652
49.220
48.962
48.272
47.934
47.328
46.968
46.444
46.094
45.742
45.230
44.740
44.024
43.486
43.064
42.758
42.322
42.000
40.870
39.024
38.980
38.510
37.888
37.594
37.308
37.538
38.014
37.986
37.778
37.234
37.052
36.606
36.116
36.014
35.606
34.974
34.650
34.126
33.830
33.708
33.476
33.762
33.776
33.212
32.998
32.866
32.660
32.448
32.102
32.078
31.890
31.504
31.264
31.106
30.960
30.974
30.700
30.426
30.248
30.352
30.288
30.148
30.040
29.972
29.884
29.670
29.626
29.598
29.352
29.130
29.092
29.070
29.104
29.068
29.102
28.678
28.564
28.776
28.886
28.682
28.774
28.452
28.292
28.440
28.468
28.634
28.608
28.592
28.622
28.432
28.382
28.452
28.458
28.588
28.608
28.546
28.730
28.722
28.784
28.896
28.684
28.526
28.630
28.814
28.974
28.862
28.844
29.014
28.912
29.110
29.128
29.196
29.200
28.998
29.042
29.070
29.210
29.272
29.228
28.954
28.874
29.020
28.806
28.770
28.794
28.630
28.852
29.006
28.990
29.220
29.278
29.228
29.262
29.158
29.178
29.292
29.132
29.146
28.962
28.954
28.904
28.986
28.872
28.786
28.558
28.356
28.322
28.436
28.470
28.120
28.080
27.946
27.756
27.686
27.500
27.672
27.628
27.254
27.232
27.100
27.042
26.938
26.798
26.558
26.384
26.168
26.160
26.080
25.974
25.998
25.832
25.754
25.684
25.576
25.328
25.046
24.674
24.302
24.198
23.842
23.762
23.308
23.112
23.000
23.000
22.986
23.000
22.828
22.508
22.090
22.012
21.988
21.954
21.836
21.438
21.158
21.082
20.804
20.630
20.410
20.354
20.034
19.970
20.000
19.960
19.960
19.692
19.236
19.080
18.972
18.894
18.704
18.558
18.360
18.036
17.940
17.828
17.554
17.552
17.190
17.082
17.000
16.922
16.952
16.792
16.744
16.294
16.116
16.040
16.106
16.164
15.972
15.654
15.530
15.386
15.290
15.196
15.072
15.028
15.024
14.956
14.946
14.842
14.776
14.894
14.482
14.182
14.190
14.228
14.252
14.156
14.054
13.946
13.996
13.884
13.912
13.956
13.816
13.492
13.534
13.430
13.506
13.500
13.466
13.226
13.168
13.202
13.212
13.148
13.022
12.938
12.904
12.998
13.020
13.030
13.068
12.998
12.960
12.910
12.776
12.834
12.906
12.838
12.732
12.696
12.720
12.858
12.682
12.654
12.534
12.474
12.608
12.692
12.718
12.420
12.322
12.482
12.560
12.618
12.692
12.628
12.386
12.326
12.448
12.388
12.364
12.508
12.344
12.130
12.392
12.502
12.538
12.534
12.386
12.240
12.366
12.308
12.480
12.558
12.414
12.284
12.462
12.386
12.420
12.394
12.462
12.326
12.306
12.416
12.182
12.172
12.332
12.206
12.208
12.150
12.082
12.278
12.290
12.192
12.118
12.002
12.014
12.006
12.148
11.932
11.910
11.976
12.030
12.036
12.040
11.930
11.830
11.860
11.750
11.922
11.926
11.976
11.806
11.764
11.750
11.832
11.868
11.810
11.612
11.570
11.538
11.662
11.598
11.602
11.310
11.292
11.130
11.202
11.296
11.312
11.074
11.056
11.024
10.834
10.910
11.012
11.000
10.662
10.438
10.420
10.364
10.318
10.390
10.136
10.042
10.028
10.026
10.026
10.036
10.026
10.000
10.000
10.000
9.974
10.000
9.986
9.916
9.804
9.720
9.548
9.452
9.630
9.400
9.074
9.180
9.200
9.192
9.068
9.022
8.848
8.960
8.906
8.918
8.744
8.470
8.078
7.908
8.098
7.854
7.666
7.654
7.156
7.078
7.170
7.192
7.162
7.166
7.032
7.014
7.000
7.014
7.000
7.000
7.000
7.000
7.000
7.000
6.980
6.986
6.966
6.830
6.870
6.790
6.856
6.802
6.826
6.520
6.422
6.244
6.248
6.368
6.230
6.076
6.000
6.042
6.118
6.096
6.042
6.010
5.982
5.988
5.952
5.912
5.960
5.878
5.912
5.770
5.670
5.710
5.726
5.804
5.502
5.342
5.382
5.532
5.602
5.500
5.190
5.060
5.064
5.204
5.098
5.150
4.994
4.932
4.884
4.822
4.938
4.900
4.944
4.678
4.588
4.496
4.510
4.632
4.514
4.208
4.120
4.146
4.220
4.222
4.196